Time,FP1,FP2,F3,F4,C3,C4,P3,P4,O1,O2,F7,F8,P7,P8,Fz,Cz,Pz,FC1,FC2,CP1,CP2,FC5,FC6,CP5,CP6
0.0000,-2.3413,-0.1901,16.4249,13.2639,8.7853,4.9860,7.0482,-0.1851,0.3289,-14.6189,7.3809,3.1186,-0.2952,5.3212,14.0769,11.4452,5.0041,11.9270,8.4819,9.6723,1.9662,6.4165,1.4835,7.0515,1.2261
1.0000,-1.5991,1.8203,15.9083,11.2590,8.2118,4.5402,6.6433,-0.4837,0.9125,-14.3689,7.1672,3.1479,1.7768,6.3485,13.6110,11.2116,4.8730,11.4978,7.7836,9.2932,1.6833,5.6732,1.4500,6.0340,0.1122
2.0000,-0.4897,4.3415,14.9003,8.4089,7.4133,3.8460,6.1128,-0.8895,1.6222,-14.0928,6.7010,3.0935,4.4314,7.5797,12.7307,10.7774,4.6151,10.7557,6.7118,8.7032,1.2252,4.5652,1.2612,4.7419,-1.2547
3.0000,0.9828,7.1260,13.3027,4.8078,6.3692,2.8790,5.4338,-1.4267,2.3566,-13.8896,5.9341,2.9305,7.4312,8.7822,11.3605,10.0911,4.1695,9.6497,5.2622,7.8734,0.5520,3.0781,0.9486,3.2130,-2.7544
4.0000,2.7657,9.8543,11.0732,0.6451,5.0696,1.6416,4.5748,-2.1330,2.9664,-13.8956,4.8609,2.6497,10.4394,9.6479,9.4747,9.1167,3.4741,8.1585,3.4716,6.7893,-0.3636,1.2350,0.5747,1.5027,-4.2605
5.0000,4.7597,12.1995,8.2413,-3.8244,3.5234,0.1682,3.5063,-3.0509,3.2806,-14.2554,3.5263,2.2607,13.0815,9.8643,7.1098,7.8462,2.4826,6.3002,1.4146,5.4577,-1.5263,-0.9017,0.2088,-0.3185,-5.6658
6.0000,6.8303,13.8959,4.9122,-8.3218,1.7659,-1.4758,2.2137,-4.2102,3.1469,-15.0831,2.0215,1.7908,15.0227,9.2011,4.3654,6.3073,1.1815,4.1361,-0.8072,3.9125,-2.9102,-3.2346,-0.0994,-2.1690,-6.8990
7.0000,8.8319,14.7947,1.2525,-12.5889,-0.1383,-3.2011,0.7113,-5.6096,2.4742,-16.4237,0.4649,1.2776,16.0441,7.5879,1.3915,4.5655,-0.3969,1.7657,-3.0802,2.2163,-4.4569,-5.6432,-0.3389,-3.9623,-7.9287
8.0000,10.6373,14.8916,-2.5376,-16.4261,-2.0993,-4.9064,-0.9514,-7.2026,1.2657,-18.2268,-1.0264,0.7574,16.0973,5.1583,-1.6369,2.7170,-2.1723,-0.6864,-5.2950,0.4544,-6.0808,-8.0012,-0.5404,-5.6166,-8.7551
9.0000,12.1687,14.3201,-6.2618,-19.7175,-4.0132,-6.4936,-2.6915,-8.8940,-0.3681,-20.3432,-2.3667,0.2538,15.3228,2.2431,-4.5505,0.8750,-4.0248,-3.0902,-7.3607,-1.2752,-7.6815,-10.1964,-0.7626,-7.0667,-9.3950
10.0000,13.4192,13.3121,-9.7623,-22.4373,-5.7798,-7.8822,-4.4050,-10.5504,-2.2232,-22.5468,-3.5236,-0.2297,14.0260,-0.6916,-7.2154,-0.8491,-5.8158,-5.3321,-9.2134,-2.8780,-9.1599,-12.1477,-1.0637,-8.2753,-9.8665
11.0000,14.4594,12.1387,-12.9445,-24.6362,-7.3191,-9.0191,-5.9855,-12.0234,-4.0408,-24.5783,-4.5242,-0.7103,12.6114,-3.1467,-9.5538,-2.3637,-7.4130,-7.3316,-10.8185,-4.2775,-10.4349,-13.8149,-1.4703,-9.2401,-10.1791
12.0000,15.4221,11.0461,-15.7816,-26.4126,-8.5844,-9.8819,-7.3440,-13.1802,-5.5620,-26.2010,-5.4408,-1.2171,11.4922,-4.7088,-11.5479,-3.6101,-8.7151,-9.0500,-12.1644,-5.4265,-11.4546,-15.1975,-1.9530,-9.9923,-10.3324
13.0000,16.4683,10.2042,-18.2992,-27.8715,-9.5649,-10.4741,-8.4240,-13.9313,-6.5843,-27.2513,-6.3599,-1.7758,10.9948,-5.1497,-13.2277,-4.5654,-9.6680,-10.4862,-13.2522,-6.3098,-12.1999,-16.3223,-2.4204,-10.5847,-10.3216
14.0000,17.7403,9.6818,-20.5421,-29.0836,-10.2772,-10.8139,-9.2055,-14.2479,-7.0042,-27.6706,-7.3426,-2.3904,11.2820,-4.4788,-14.6442,-5.2357,-10.2674,-11.6614,-14.0817,-6.9377,-12.6783,-17.2212,-2.7342,-11.0713,-10.1466
15.0000,19.3161,9.4516,-22.5344,-30.0525,-10.7473,-10.9185,-9.6972,-14.1618,-6.8338,-27.5085,-8.3890,-3.0279,12.3145,-2.9302,-15.8371,-5.6400,-10.5462,-12.5963,-14.6391,-7.3311,-12.9094,-17.9073,-2.7420,-11.4818,-9.8166
16.0000,21.1759,9.4217,-24.2444,-30.6989,-10.9882,-10.7902,-9.9197,-13.7463,-6.1855,-26.8943,-9.4190,-3.6121,13.8605,-0.8864,-16.8052,-5.7916,-10.5521,-13.2889,-14.8890,-7.5034,-12.9076,-18.3553,-2.3181,-11.8005,-9.3482
17.0000,23.1945,9.4828,-25.5683,-30.8668,-10.9820,-10.4059,-9.8843,-13.0846,-5.2305,-25.9871,-10.2764,-4.0286,15.5516,1.2404,-17.4902,-5.6805,-10.3201,-13.6979,-14.7744,-7.4439,-12.6665,-18.4935,-1.3991,-11.9547,-8.7544
18.0000,25.1630,9.5539,-26.3370,-30.3525,-10.6719,-9.7164,-9.5766,-12.2337,-4.1423,-24.9171,-10.7594,-4.1433,16.9717,3.1348,-17.7799,-5.2663,-9.8517,-13.7417,-14.2234,-7.1105,-12.1507,-18.2123,-0.0026,-11.8212,-8.0278
19.0000,26.8358,9.6148,-26.3487,-28.9502,-9.9694,-8.6532,-8.9512,-11.1976,-3.0426,-23.7391,-10.6679,-3.8290,17.7567,4.6737,-17.5298,-4.4820,-9.1057,-13.3110,-13.1636,-6.4333,-11.2992,-17.3887,1.7782,-11.2501,-7.1259
20.0000,27.9917,9.7149,-25.4183,-26.5060,-8.7767,-7.1456,-7.9407,-9.9196,-1.9670,-22.4123,-9.8567,-2.9943,17.6796,5.9597,-16.5997,-3.2514,-8.0072,-12.2960,-11.5391,-5.3310,-10.0396,-15.9211,3.8013,-10.1013,-5.9669
21.0000,28.4902,9.9577,-23.4308,-22.9653,-7.0183,-5.1410,-6.4775,-8.2977,-0.8608,-20.8162,-8.2770,-1.6080,16.7013,7.2802,-14.8947,-1.5138,-6.4716,-10.6201,-9.3291,-3.7363,-8.3110,-13.7655,5.9149,-8.2867,-4.4411
22.0000,28.3085,10.4690,-20.3839,-18.4047,-4.6732,-2.6268,-4.5241,-6.2229,0.3935,-18.7989,-5.9951,0.2889,14.9745,9.0008,-12.3987,0.7481,-4.4390,-8.2704,-6.5607,-1.6232,-6.0901,-10.9632,7.9966,-5.8041,-2.4397
23.0000,27.5438,11.3568,-16.4064,-13.0355,-1.7989,0.3534,-2.1001,-3.6282,1.9240,-16.2449,-3.1800,2.5864,12.8007,11.4234,-9.1914,3.4873,-1.9081,-5.3168,-3.3160,0.9707,-3.4117,-7.6508,9.9788,-2.7534,0.1052
24.0000,26.3826,12.6798,-11.7460,-7.1807,1.4624,3.6933,0.7006,-0.5348,3.8094,-13.1432,-0.0648,5.1237,10.5530,14.6514,-5.4441,6.5842,1.0410,-1.9137,0.2703,3.9348,-0.3796,-4.0469,11.8521,0.6712,3.1788
25.0000,25.0429,14.4304,-6.7295,-1.2252,4.8982,7.2285,3.7111,2.9199,6.0296,-9.6323,3.1089,7.7179,8.5847,18.5053,-1.3926,9.8548,4.2415,1.7197,4.0227,7.0927,2.8378,-0.4192,13.6473,4.2125,6.6565
26.0000,23.7072,16.5379,-1.7048,4.4465,8.2582,10.7535,6.7113,6.4843,8.4437,-6.0071,6.1461,10.1966,7.1474,22.5178,2.7034,13.0746,7.4582,5.3330,7.7433,10.2248,6.0266,2.9631,15.4031,7.5984,10.3002
27.0000,22.4694,18.8875,3.0205,9.5130,11.2982,14.0479,9.4648,9.8271,10.8033,-2.6802,8.9369,12.4260,6.3385,26.0155,6.6050,16.0138,10.4235,8.6876,11.2348,13.1028,8.9576,5.8782,17.1327,10.5934,13.7875
28.0000,21.3106,21.3473,7.2276,13.7624,13.8235,16.9078,11.7609,12.5994,12.7997,-0.1053,11.4672,14.3285,6.0899,28.2704,10.1312,18.4748,12.8853,11.5956,14.3245,15.5276,11.4227,8.1911,18.8021,13.0410,16.7674
29.0000,20.1158,23.7938,10.8098,17.1128,15.7220,19.1749,13.4538,14.5082,14.1331,1.3207,13.7992,15.8866,6.1989,28.6808,13.1799,20.3241,14.6543,13.9468,16.8834,17.3624,13.2679,9.8724,20.3302,14.8841,18.9328
30.0000,18.7260,26.1270,13.7665,19.6023,16.9772,20.7600,14.4881,15.3842,14.5852,1.3505,16.0273,17.1330,6.3911,26.9340,15.7268,21.5111,15.6390,15.7170,18.8394,18.5519,14.4176,10.9923,21.6112,16.1599,20.0918
31.0000,17.0119,28.2712,16.1717,21.3513,17.6602,21.6544,14.9030,15.2240,14.0749,-0.0480,18.2262,18.1322,6.3981,23.1036,17.8063,22.0692,15.8613,16.9556,20.1817,19.1256,14.8832,11.6927,22.5521,16.9706,20.2165
32.0000,14.9464,30.1668,18.1261,22.5104,17.9013,21.9271,14.8162,14.1951,12.6822,-2.6746,20.4055,18.9575,6.0284,17.6537,19.4788,22.0999,15.4469,17.7582,20.9542,19.1838,14.7572,12.1438,23.1131,17.4405,19.4562
33.0000,12.6505,31.7564,19.7097,23.2056,17.8523,21.7091,14.3913,12.6014,10.6337,-6.1305,22.4882,19.6715,5.2158,11.3468,20.7977,21.7452,14.5956,18.2316,21.2423,18.8702,14.1911,12.4985,23.3351,17.6717,18.1084
34.0000,10.3972,32.9774,20.9466,23.4985,17.6465,21.1675,13.7980,10.8167,8.2529,-9.8977,24.3180,20.3133,4.0327,5.0777,21.7827,21.1539,13.5379,18.4611,21.1529,18.3398,13.3657,12.8550,23.3439,17.7125,16.5531
35.0000,8.5670,33.7653,21.7932,23.3714,17.3705,20.4738,13.1753,9.2025,5.8896,-13.4430,25.6955,20.8950,2.6679,-0.3229,22.4092,20.4515,12.4887,18.4885,20.7925,17.7277,12.4566,13.2384,23.3274,17.5475,15.1670
36.0000,7.5662,34.0692,22.1509,22.7394,17.0509,19.7741,12.6069,8.0323,3.8463,-16.3230,26.4316,21.4058,1.3773,-4.2643,22.6148,19.7197,11.6088,18.3069,20.2483,17.1272,11.6052,13.6035,23.4908,17.1112,14.2388
37.0000,7.7265,33.8754,21.8998,21.4879,16.6601,19.1659,12.1132,7.4387,2.3207,-18.2627,26.4009,21.8221,0.4200,-6.5067,22.3209,18.9887,10.9823,17.8715,19.5752,16.5803,10.8982,13.8569,24.0034,16.3199,13.9086
38.0000,9.2159,33.2281,20.9415,19.5214,16.1371,18.6866,11.6619,7.3984,1.3774,-19.1926,25.5801,22.1170,-0.0017,-7.1802,21.4612,18.2443,10.6134,17.1222,18.7909,16.0812,10.3604,13.8906,24.9510,15.1112,14.1459
39.0000,11.9838,32.2361,19.2399,16.8122,15.4161,18.3154,11.1903,7.7549,0.9548,-19.2358,24.0597,22.2688,0.2155,-6.7116,20.0103,17.4438,10.4410,16.0117,17.8820,15.5906,9.9602,13.6177,26.3093,13.4782,14.7715
40.0000,15.7576,31.0585,16.8472,13.4327,14.4538,17.9874,10.6336,8.2719,0.9016,-18.6533,22.0252,22.2635,1.0598,-5.6833,18.0024,16.5384,10.3661,14.5304,16.8170,15.0550,9.6260,12.9989,27.9443,11.4865,15.5156
41.0000,20.0911,29.8673,13.9093,9.5638,13.2489,17.6161,9.9503,8.7022,1.0318,-17.7636,19.7149,22.0942,2.4177,-4.6640,15.5366,15.4939,10.2837,12.7202,15.5646,14.4273,9.2701,12.0554,29.6402,9.2713,16.0953
42.0000,24.4540,28.7957,10.6496,5.4767,11.8480,17.1189,9.1383,8.8523,1.1818,-16.8579,17.3658,21.7569,4.1095,-4.0597,12.7668,14.3051,10.1115,10.6758,14.1124,13.6820,8.8128,10.8635,31.1442,7.0123,16.2901
43.0000,28.3381,27.8868,7.3338,1.4924,10.3384,16.4399,8.2383,8.6273,1.2551,-16.1330,15.1658,21.2470,5.9381,-4.0209,9.8795,13.0016,9.8091,8.5321,12.4807,12.8238,8.2033,9.5364,32.2177,4.8972,15.9945
44.0000,31.3541,27.0614,4.2272,-2.0718,8.8303,15.5638,7.3253,8.0457,1.2438,-15.6555,13.2224,20.5582,7.7360,-4.4273,7.0654,11.6445,9.3844,6.4413,10.7283,11.8876,7.4330,8.1978,32.6784,3.0826,15.2359
45.0000,33.2961,26.1192,1.5515,-4.9544,7.4345,14.5202,6.4912,7.2234,1.2226,-15.3638,11.5573,19.6850,9.4013,-4.9491,4.4917,10.3148,8.8885,4.5471,8.9476,10.9318,6.5375,6.9556,32.4256,1.6653,14.1558
46.0000,34.1609,24.7804,-0.5487,-6.9909,6.2415,13.3757,5.8238,6.3346,1.3219,-15.1019,10.1255,18.6291,10.9118,-5.1587,2.2804,9.0987,8.3995,2.9602,7.2501,10.0265,5.5892,5.8828,31.4459,0.6692,12.9624
47.0000,34.1207,22.7617,-2.0241,-8.1357,5.3066,12.2182,5.3885,5.5612,1.6860,-14.6731,8.8493,17.4064,12.3174,-4.6617,0.4967,8.0711,8.0036,1.7415,5.7456,9.2398,4.6814,5.0084,29.8013,0.0515,11.8703
48.0000,33.4618,19.8687,-2.9211,-8.4620,4.6440,11.1371,5.2151,5.0464,2.4307,-13.8989,7.6559,16.0533,13.7132,-3.2075,-0.8520,7.2836,7.7740,0.8954,4.5196,8.6253,3.9077,4.3194,27.6087,-0.2761,11.0461
49.0000,32.5066,16.0791,-3.3672,-8.1420,4.2290,10.2039,5.2941,4.8637,3.6100,-12.6661,6.5062,14.6280,15.2002,-0.7530,-1.8082,6.7555,7.7558,0.3742,3.6150,8.2125,3.3412,3.7716,25.0171,-0.4189,10.5736
50.0000,31.5409,11.5899,-3.5434,-7.4136,4.0079,9.4582,5.5794,5.0070,5.1993,-10.9548,5.4053,13.2066,16.8453,2.5327,-2.4502,6.4724,7.9566,0.0907,3.0220,8.0012,3.0185,3.3044,22.1893,-0.4729,10.4461
51.0000,30.7608,6.8105,-3.6505,-6.5409,3.9099,8.9019,5.9980,5.4010,7.0976,-8.8417,4.3948,11.8726,18.6494,6.3170,-2.8762,6.3884,8.3446,-0.0638,2.6790,7.9618,2.9308,2.8544,19.2889,-0.5064,10.5845
52.0000,30.2482,2.2961,-3.8741,-5.7742,3.8600,8.5013,6.4623,5.9270,9.1451,-6.4838,3.5306,10.7026,20.5319,10.1856,-3.1885,6.4338,8.8545,-0.1999,2.4854,8.0393,3.0253,2.3670,16.4708,-0.5550,10.8711
53.0000,29.9757,-1.3652,-4.3531,-5.3167,3.7898,8.1969,6.8837,6.4539,11.1524,-4.0880,2.8551,9.7515,22.3358,13.7311,-3.4802,6.5252,9.3986,-0.4111,2.3222,8.1618,3.2148,1.8022,13.8722,-0.6261,11.1883
54.0000,29.8312,-3.6853,-5.1572,-5.2980,3.6455,7.9167,7.1840,6.8652,12.9316,-1.8763,2.3767,9.0409,23.8514,16.6238,-3.8247,6.5770,9.8799,-0.7607,2.0758,8.2527,3.3952,1.1370,11.6012,-0.7109,11.4472
55.0000,29.6537,-4.3948,-6.2749,-5.7594,3.3924,7.5905,7.3047,7.0770,14.3243,-0.0548,2.0623,8.5532,24.8550,18.6495,-4.2680,6.5134,10.2079,-1.2733,1.6609,8.2423,3.4652,0.3655,9.7232,-0.7964,11.6017
56.0000,29.2694,-3.5130,-7.6148,-6.6487,3.0178,7.1628,7.2123,7.0444,15.2208,1.2101,1.8466,8.2359,25.1535,19.7115,-4.8232,6.2793,10.3112,-1.9323,1.0363,8.0797,3.3458,-0.5015,8.2504,-0.8730,11.6444
57.0000,28.5217,-1.3494,-9.0202,-7.8263,2.5313,6.6007,6.9014,6.7580,15.5690,1.8061,1.6548,8.0129,24.6263,19.8057,-5.4688,5.8483,10.1477,-2.6838,0.2112,7.7418,2.9942,-1.4363,7.1387,-0.9355,11.5902
58.0000,27.2924,1.5666,-10.2946,-9.0835,1.9634,5.8984,6.3935,6.2345,15.3735,1.6809,1.4313,7.8022,23.2547,18.9853,-6.1498,5.2278,9.7101,-3.4458,-0.7582,7.2368,2.4108,-2.3945,6.2983,-0.9787,11.4571
59.0000,25.5162,4.6113,-11.2356,-10.1716,1.3625,5.0766,5.7330,5.5076,14.6866,0.8426,1.1633,7.5364,21.1329,17.3308,-6.7829,4.4597,9.0255,-4.1213,-1.7810,6.6029,1.6371,-3.3160,5.6172,-0.9909,11.2508
60.0000,23.1890,7.2139,-11.6702,-10.8398,0.7889,4.1797,4.9813,4.6212,13.5954,-0.6431,0.8911,7.1789,18.4585,14.9375,-7.2674,3.6151,8.1508,-4.6129,-2.7488,5.9017,0.7464,-4.1293,4.9959,-0.9509,10.9600
61.0000,20.3742,8.9883,-11.4865,-10.8781,0.3068,3.2691,4.2077,3.6262,12.2070,-2.6601,0.7024,6.7348,15.5031,11.9208,-7.4999,2.7846,7.1627,-4.8387,-3.5546,5.2070,-0.1705,-4.7592,4.3817,-0.8293,10.5632
62.0000,17.2034,9.8113,-10.6548,-10.1575,-0.0250,2.4168,3.4812,2.5808,10.6349,-5.0503,0.7087,6.2500,12.5694,8.4342,-7.3917,2.0653,6.1465,-4.7456,-4.1091,4.5924,-1.0214,-5.1387,3.7925,-0.5973,10.0421
63.0000,13.8720,9.8305,-9.2337,-8.6605,-0.1622,1.6960,2.8611,1.5492,8.9880,-7.6280,1.0130,5.8014,9.9435,4.6858,-6.8865,1.5451,5.1837,-4.3176,-4.3524,4.1191,-1.7271,-5.2207,3.3190,-0.2382,9.3963
64.0000,10.6243,9.3996,-7.3607,-6.4934,-0.0829,1.1724,2.3910,0.5994,7.3641,-10.1972,1.6771,5.4780,7.8513,0.9414,-5.9740,1.2887,4.3423,-3.5792,-4.2609,3.8277,-2.2318,-4.9895,3.1031,0.2415,8.6516
65.0000,7.7292,8.9624,-5.2282,-3.8767,0.2092,0.8951,2.0955,-0.2037,5.8453,-12.5727,2.6977,5.3590,6.4280,-2.4930,-4.6970,1.3275,3.6698,-2.5915,-3.8476,3.7343,-2.5075,-4.4669,3.2948,0.8073,7.8581
66.0000,5.4463,8.9195,-3.0507,-1.1130,0.6859,0.8882,1.9801,-0.8078,4.4975,-14.6017,3.9985,5.4924,5.7064,-5.3114,-3.1496,1.6555,3.1916,-1.4417,-3.1588,3.8321,-2.5536,-3.7106,4.0003,1.4001,7.0788
67.0000,3.9889,9.5165,-1.0306,1.4626,1.3005,1.1459,2.0341,-1.1821,3.3718,-16.1813,5.4416,5.8820,5.6249,-7.2592,-1.4655,2.2313,2.9127,-0.2296,-2.2672,4.0970,-2.3915,-2.8065,5.2375,1.9489,6.3721
68.0000,3.4912,10.7833,0.6712,3.5389,1.9968,1.6314,2.2358,-1.3245,2.5051,-17.2693,6.8530,6.4837,6.0529,-8.1825,0.2013,2.9877,2.8222,0.9488,-1.2627,4.4953,-2.0577,-1.8539,6.9131,2.3885,5.7749
69.0000,3.9876,12.5405,1.9528,4.8806,2.7192,2.2805,2.5571,-1.2621,1.9217,-17.8845,8.0578,7.2138,6.8264,-8.0608,1.6995,3.8442,2.8995,2.0143,-0.2427,4.9913,-1.5960,-0.9494,8.8316,2.6771,5.2923
70.0000,5.4090,14.4676,2.7766,5.3638,3.4213,3.0104,2.9675,-1.0460,1.6327,-18.0972,8.9141,7.9668,7.7853,-7.0108,2.9033,4.7207,3.1182,2.9143,0.6986,5.5519,-1.0522,-0.1721,10.7346,2.8074,4.8977
71.0000,7.5971,16.2075,3.1609,4.9874,4.0707,3.7319,3.4353,-0.7418,1.6338,-18.0111,9.3383,8.6376,8.8034,-5.2598,3.7307,5.5500,3.4494,3.6253,1.4797,6.1490,-0.4702,0.4261,12.3602,2.8076,4.5424
72.0000,10.3325,17.4775,3.1638,3.8590,4.6494,4.3621,3.9280,-0.4170,1.9029,-17.7418,9.3157,9.1427,9.8041,-3.0953,4.1519,6.2838,3.8611,4.1502,2.0400,6.7575,0.1090,0.8229,13.5050,2.7309,4.1715
73.0000,13.3702,18.1494,2.8641,2.1599,5.1508,4.8355,4.4110,-0.1305,2.3976,-17.3954,8.8954,9.4356,10.7602,-0.8032,4.1888,6.8946,4.3174,4.5096,2.3454,7.3523,0.6472,1.0214,14.0695,2.6376,3.7403
74.0000,16.4713,18.2795,2.3444,0.0998,5.5737,5.1111,4.8468,0.0740,3.0549,-17.0532,8.1712,9.5106,11.6774,1.3872,3.9042,7.3715,4.7769,4.7315,2.3899,7.9051,1.1080,1.0421,14.0740,2.5756,3.2248
75.0000,19.4270,18.0794,1.6804,-2.1278,5.9173,5.1735,5.1969,0.1701,3.7950,-16.7629,7.2555,9.3978,12.5691,3.3385,3.3847,7.7126,5.1925,4.8415,2.1933,8.3831,1.4575,0.9132,13.6393,2.5655,2.6245
76.0000,22.0697,17.8407,0.9373,-4.3759,6.1783,5.0296,5.4256,0.1461,4.5281,-16.5389,6.2532,9.1479,13.4286,5.0127,2.7219,7.9182,5.5153,4.8562,1.7953,8.7511,1.6654,0.6653,12.9412,2.5974,1.9565
77.0000,24.2737,17.8389,0.1715,-6.5559,6.3511,4.7018,5.5058,0.0012,5.1648,-16.3673,5.2419,8.8162,14.2082,6.4523,1.9961,7.9859,5.6996,4.7825,1.2473,8.9766,1.7087,0.3291,12.1536,2.6386,1.2453
78.0000,25.9501,18.2466,-0.5650,-8.6279,6.4323,4.2210,5.4260,-0.2574,5.6286,-16.2159,4.2633,8.4470,14.8113,7.7428,1.2657,7.9101,5.7114,4.6207,0.6044,9.0368,1.5760,-0.0599,11.3988,2.6523,0.5135
79.0000,27.0415,19.0822,-1.2204,-10.5761,6.4264,3.6223,5.1956,-0.6151,5.8661,-16.0430,3.3272,8.0667,15.1012,8.9717,0.5659,7.6860,5.5357,4.3723,-0.0814,8.9252,1.2717,-0.4553,10.7226,2.6179,-0.2224
80.0000,27.5216,20.2074,-1.7431,-12.3788,6.3513,2.9432,4.8463,-1.0478,5.8547,-15.8057,2.4255,7.6856,14.9240,10.1939,-0.0860,7.3170,5.1815,4.0481,-0.7636,8.6562,0.8186,-0.7939,10.1003,2.5482,-0.9493
81.0000,27.3990,21.3720,-2.0842,-13.9829,6.2411,2.2261,4.4297,-1.5189,5.6041,-15.4657,1.5511,7.3077,14.1426,11.4161,-0.6792,6.8219,4.6832,3.6750,-1.4004,8.2653,0.2587,-0.9950,9.4691,2.4940,-1.6486
82.0000,26.7239,22.2889,-2.2036,-15.2933,6.1439,1.5211,4.0092,-1.9785,5.1527,-14.9943,0.7168,6.9437,12.6725,12.5995,-1.1975,6.2395,4.0953,3.2982,-1.9516,7.8046,-0.3506,-0.9672,8.7747,2.5350,-2.2865
83.0000,25.5900,22.7150,-2.0753,-16.1790,6.1146,0.8877,3.6489,-2.3668,4.5583,-14.3755,-0.0340,6.6225,10.5119,13.6776,-1.6108,5.6281,3.4843,2.9772,-2.3746,7.3343,-0.9424,-0.6231,8.0117,2.7568,-2.8085
84.0000,24.1289,22.5123,-1.6922,-16.4963,6.2045,0.3924,3.4007,-2.6235,3.8883,-13.6105,-0.6258,6.3941,7.7576,14.5806,-1.8728,5.0581,2.9159,2.7775,-2.6231,6.9119,-1.4502,0.0998,7.2439,3.2219,-3.1432
85.0000,22.4914,21.6737,-1.0654,-16.1212,6.4482,0.1009,3.2942,-2.7009,3.2087,-12.7212,-0.9628,6.3224,4.6040,15.2548,-1.9272,4.6009,2.4443,2.7570,-2.6499,6.5819,-1.8175,1.2184,6.5942,3.9429,-3.2156
86.0000,20.8216,20.3081,-0.2224,-14.9821,6.8534,0.0657,3.3298,-2.5782,2.5779,-11.7520,-0.9485,6.4680,1.3233,15.6721,-1.7206,4.3136,2.1023,2.9531,-2.4139,6.3677,-2.0078,2.6875,6.2071,4.8666,-2.9689
87.0000,19.2267,18.5937,0.7979,-13.0829,7.3949,0.3127,3.4784,-2.2714,2.0427,-10.7680,-0.5119,6.8662,-1.7696,15.8257,-1.2194,4.2266,1.8979,3.3709,-1.8914,6.2686,-2.0107,4.3952,6.1984,5.8758,-2.3858
88.0000,17.7545,16.7179,1.9491,-10.5107,8.0151,0.8307,3.6870,-1.8362,1.6392,-9.8490,0.3700,7.5065,-4.3602,15.7174,-0.4252,4.3347,1.8151,3.9782,-1.0872,6.2616,-1.8446,6.1714,6.6079,6.8087,-1.5050
89.0000,16.3864,14.8256,3.1792,-7.4269,8.6313,1.5668,3.8889,-1.3601,1.3942,-9.0781,1.6571,8.3211,-6.1793,15.3421,0.6155,4.5970,1.8203,4.7064,-0.0428,6.3069,-1.5537,7.8104,7.3742,7.4928,-0.4241
90.0000,15.0494,12.9897,4.4283,-4.0428,9.1489,2.4320,4.0163,-0.9459,1.3266,-8.5284,3.2438,9.1882,-7.0399,14.6786,1.8098,4.9430,1.8710,5.4589,1.1624,6.3566,-1.2011,9.1032,8.3412,7.7831,0.7135
91.0000,13.6469,11.2141,5.6253,-0.5899,9.4764,3.3149,4.0128,-0.6901,1.4456,-8.2487,4.9716,9.9504,-6.8615,13.6925,3.0287,5.2861,1.9244,6.1258,2.4174,6.3635,-0.8579,9.8723,9.2946,7.5949,1.7442
92.0000,12.0980,9.4617,6.6837,2.7103,9.5403,4.1012,3.8415,-0.6618,1.7468,-8.2546,6.6534,10.4445,-5.6779,12.3506,4.1242,5.5397,1.9444,6.5997,3.5938,6.2878,-0.5916,10.0027,10.0178,6.9218,2.5173
93.0000,10.3758,7.6965,7.5006,5.6678,9.2958,4.6939,3.4899,-0.8891,2.2066,-8.5263,8.1044,10.5365,-3.6273,10.6428,4.9525,5.6317,1.9044,6.7922,4.5649,6.1011,-0.4562,9.4593,10.3478,5.8350,2.9258
94.0000,8.5297,5.9220,7.9626,8.1346,8.7311,5.0298,2.9680,-1.3557,2.7776,-9.0148,9.1729,10.1507,-0.9287,8.6045,5.3961,5.5159,1.7871,6.6450,5.2252,5.7871,-0.4851,8.2895,10.2136,4.4627,2.9268
95.0000,6.6850,4.2009,7.9564,10.0041,7.8656,5.0860,2.3034,-2.0088,3.3881,-9.6553,9.7638,9.2865,2.1513,6.3277,5.3807,5.1754,1.5818,6.1358,5.5053,5.3397,-0.6888,6.6089,9.6438,2.9582,2.5459
96.0000,5.0180,2.6503,7.3867,11.2025,6.7431,4.8772,1.5323,-2.7771,3.9485,-10.3844,9.8489,8.0177,5.3351,3.9575,4.8832,4.6204,1.2808,5.2769,5.3799,4.7600,-1.0569,4.5751,8.7443,1.4637,1.8658
97.0000,3.7134,1.4127,6.1956,11.6801,5.4210,4.4441,0.6912,-3.5906,4.3637,-11.1552,9.4632,6.4747,8.3673,1.6703,3.9304,3.8808,0.8776,4.1094,4.8666,4.0535,-1.5642,2.3561,7.6531,0.0817,1.0018
98.0000,2.9162,0.6155,4.3793,11.4053,3.9609,3.8374,-0.1902,-4.3982,4.5493,-11.9468,8.6893,4.8157,11.0405,-0.3604,2.5893,2.9964,0.3672,2.6926,4.0167,3.2291,-2.1780,0.1011,6.4914,-1.1395,0.0735
99.0000,2.6936,0.3320,1.9980,10.3664,2.4203,3.1036,-1.0927,-5.1769,4.4493,-12.7648,7.6350,3.1941,13.2093,-2.0018,0.9520,2.0088,-0.2513,1.0947,2.9019,2.2999,-2.8648,-2.0789,5.3274,-2.2031,-0.8207
100.0000,3.0167,0.5584,-0.8245,8.5804,0.8494,2.2750,-2.0083,-5.9300,4.0480,-13.6336,6.4096,1.7324,14.7929,-3.1924,-0.8796,0.9558,-0.9705,-0.6159,1.6003,1.2850,-3.5955,-4.1183,4.1671,-3.1472,-1.6188
101.0000,3.7703,1.2140,-3.9140,6.1052,-0.7093,1.3693,-2.9363,-6.6770,3.3740,-14.5817,5.1075,0.5074,15.7672,-3.9569,-2.8067,-0.1303,-1.7716,-2.3756,0.1854,0.2120,-4.3474,-5.9903,2.9736,-4.0197,-2.2987
102.0000,4.7841,2.1639,-7.0675,3.0501,-2.2186,0.3955,-3.8793,-7.4383,2.4940,-15.6273,3.8000,-0.4495,16.1506,-4.3988,-4.7421,-1.2203,-2.6232,-4.1265,-1.2800,-0.8829,-5.1034,-7.6918,1.7059,-4.8550,-2.8712
103.0000,5.8782,3.2557,-10.0820,-0.4218,-3.6434,-0.6357,-4.8371,-8.2214,1.4971,-16.7670,2.5367,-1.1407,15.9860,-4.6747,-6.6129,-2.2864,-3.4848,-5.8168,-2.7442,-1.9566,-5.8500,-9.2263,0.3633,-5.6592,-3.3674
104.0000,6.9061,4.3575,-12.7827,-4.1026,-4.9498,-1.7028,-5.8033,-9.0140,0.4741,-17.9727,1.3535,-1.5853,15.3271,-4.9556,-8.3611,-3.2997,-4.3128,-7.3994,-4.1645,-2.9641,-6.5749,-10.5892,-0.9853,-6.4093,-3.8251
105.0000,7.7846,5.3838,-15.0459,-7.7607,-6.1062,-2.7685,-6.7640,-9.7848,-0.5024,-19.1964,0.2809,-1.8035,14.2281,-5.3875,-9.9419,-4.2318,-5.0698,-8.8324,-5.5040,-3.8659,-7.2657,-11.7621,-2.1989,-7.0644,-4.2800
106.0000,8.5005,6.3019,-16.8114,-11.1705,-7.0874,-3.7838,-7.6988,-10.4948,-1.3924,-20.3828,-0.6502,-1.8091,12.7425,-6.0603,-11.3234,-5.0577,-5.7328,-10.0811,-6.7297,-4.6348,-7.9108,-12.7165,-3.0925,-7.5863,-4.7615
107.0000,9.0960,7.1181,-18.0826,-14.1449,-7.8798,-4.6971,-8.5845,-11.1107,-2.1926,-21.4832,-1.4106,-1.6116,10.9276,-6.9939,-12.4873,-5.7616,-6.2993,-11.1223,-7.8144,-5.2625,-8.5006,-13.4244,-3.4883,-7.9587,-5.2938
108.0000,9.6376,7.8502,-18.9130,-16.5623,-8.4853,-5.4675,-9.3993,-11.6193,-2.9295,-22.4680,-1.9807,-1.2261,8.8539,-8.1434,-13.4303,-6.3404,-6.7875,-11.9470,-8.7393,-5.7602,-9.0302,-13.8706,-3.2723,-8.1994,-5.8960
109.0000,10.1825,8.4981,-19.3847,-18.3812,-8.9212,-6.0760,-10.1264,-12.0334,-3.6450,-23.3315,-2.3601,-0.6858,6.6148,-9.4208,-14.1642,-6.8055,-7.2309,-12.5623,-9.4975,-6.1560,-9.4999,-14.0614,-2.4385,-8.3594,-6.5806
110.0000,10.7531,9.0234,-19.5813,-19.6377,-9.2155,-6.5298,-10.7546,-12.3893,-4.3770,-24.0895,-2.5753,-0.0494,4.3321,-10.7234,-14.7124,-7.1785,-7.6673,-12.9882,-10.0946,-6.4852,-9.9137,-14.0250,-1.1032,-8.5076,-7.3471
111.0000,11.3281,9.3488,-19.5625,-20.4261,-9.3969,-6.8570,-11.2761,-12.7339,-5.1427,-24.7680,-2.6785,0.6020,2.1547,-11.9616,-15.1029,-7.4831,-8.1252,-13.2502,-10.5442,-6.7782,-10.2746,-13.8017,0.5162,-8.7049,-8.1725
112.0000,11.8529,9.3760,-19.3456,-20.8671,-9.4821,-7.0930,-11.6805,-13.1056,-5.9279,-25.3886,-2.7358,1.1790,0.2474,-13.0761,-15.3566,-7.7332,-8.6107,-13.3680,-10.8598,-7.0473,-10.5775,-13.4266,2.1520,-8.9765,-9.0019
113.0000,12.2636,9.0198,-18.8983,-21.0691,-9.4635,-7.2609,-11.9481,-13.5152,-6.6852,-25.9531,-2.8056,1.6085,-1.2278,-14.0394,-15.4750,-7.9215,-9.0974,-13.3440,-11.0430,-7.2752,-10.8023,-12.9104,3.5537,-9.2906,-9.7448
114.0000,12.5156,8.2451,-18.1439,-21.0943,-9.3012,-7.3538,-12.0426,-13.9311,-7.3405,-26.4332,-2.9134,1.8596,-2.1359,-14.8430,-15.4294,-8.0116,-9.5239,-13.1533,-11.0725,-7.4106,-10.9078,-12.2257,4.5501,-9.5513,-10.2797
115.0000,12.6057,7.0964,-16.9787,-20.9359,-8.9234,-7.3233,-11.9076,-14.2744,-7.8045,-26.7660,-3.0302,1.9636,-2.3938,-15.4748,-15.1574,-7.9361,-9.7974,-12.7412,-10.8976,-7.3695,-10.8303,-11.3036,5.0903,-9.6099,-10.4692
116.0000,12.5801,5.7089,-15.2976,-20.5129,-8.2351,-7.0798,-11.4683,-14.4264,-7.9863,-26.8578,-3.0640,2.0196,-1.9879,-15.8948,-14.5679,-7.6033,-9.8055,-12.0275,-10.4397,-7.0460,-10.4866,-10.0458,5.2505,-9.2932,-10.1827
117.0000,12.5263,4.2960,-13.0222,-19.6840,-7.1352,-6.5054,-10.6393,-14.2448,-7.8044,-26.5937,-2.8677,2.1827,-0.9829,-16.0191,-13.5551,-6.9097,-9.4314,-10.9200,-9.6022,-6.3281,-9.7835,-8.3489,5.2090,-8.4410,-9.3206
118.0000,12.5504,3.1169,-10.1248,-18.2775,-5.5384,-5.4762,-9.3384,-13.5870,-7.1942,-25.8518,-2.2665,2.6343,0.4845,-15.7188,-12.0196,-5.7583,-8.5718,-9.3335,-8.2879,-5.1169,-8.6306,-6.1356,5.1974,-6.9453,-7.8338
119.0000,12.7493,2.4301,-6.6438,-16.1305,-3.3969,-3.8899,-7.5034,-12.3352,-6.1108,-24.5190,-1.0965,3.5433,2.2245,-14.8367,-9.8911,-4.0766,-7.1526,-7.2106,-6.4208,-3.3458,-6.9561,-3.3850,5.4432,-4.7786,-5.7327
120.0000,13.1856,2.4457,-2.6848,-13.1291,-0.7167,-1.6910,-5.1100,-10.4178,-4.5309,-22.5079,0.7527,5.0260,4.0243,-13.2204,-7.1486,-1.8325,-5.1420,-4.5395,-3.9662,-0.9948,-4.7216,-0.1529,6.1223,-2.0061,-3.0842
121.0000,13.8727,3.2869,1.5909,-9.2404,2.4359,1.1122,-2.1851,-7.8252,-2.4550,-19.7738,3.3043,7.1150,5.6824,-10.7642,-3.8313,0.9564,-2.5574,-1.3641,-0.9449,1.9015,-1.9335,3.4262,7.3289,1.2230,0.0029
122.0000,14.7731,4.9681,5.9892,-4.5305,5.9379,4.4415,1.1869,-4.6178,0.0884,-16.3295,6.4778,9.7462,7.0407,-7.4498,-0.0392,4.2195,0.5325,2.2154,2.5609,5.2540,1.3502,7.1538,9.0695,4.7019,3.3956
123.0000,15.8082,7.3947,10.3115,0.8364,9.6240,8.1551,4.8667,-0.9257,3.0359,-12.2588,10.0959,12.7645,8.0078,-3.3751,4.0771,7.8379,4.0105,6.0519,6.4132,8.9258,5.0192,10.7993,11.2761,8.2026,6.9544
124.0000,16.8744,10.3809,14.3818,6.6152,13.3075,12.0632,8.6730,3.0582,6.2837,-7.7236,13.9121,15.9487,8.5677,1.2385,8.3341,11.6540,7.7191,9.9674,10.4312,12.7458,8.9170,14.1387,13.8278,11.5142,10.5417
125.0000,17.8603,13.6817,18.0654,12.5105,16.8030,15.9496,12.4012,7.0937,9.6852,-2.9626,17.6526,19.0473,8.7736,6.0651,12.5366,15.4845,11.4708,13.7738,14.4105,16.5246,12.8519,16.9915,16.5746,14.4721,14.0224
126.0000,18.6606,17.0301,21.2769,18.2141,19.9465,19.5947,15.8483,10.9143,13.0572,1.7246,21.0615,21.8170,8.7272,10.7188,16.4970,19.1359,15.0634,17.2918,18.1442,20.0721,16.6137,19.2473,19.3538,16.9738,17.2578
127.0000,19.1848,20.1738,23.9745,23.4407,22.6094,22.7971,18.8354,14.2555,16.1956,6.0067,23.9379,24.0573,8.5499,14.8165,20.0493,22.4206,18.2974,20.3664,21.4427,23.2144,19.9934,20.8743,22.0002,18.9776,20.0998
128.0000,19.3639,22.9055,26.1457,27.9569,24.7057,25.3909,21.2277,16.8861,18.9007,9.5647,26.1570,25.6336,8.3528,18.0470,23.0578,25.1727,20.9949,22.8770,24.1498,25.8087,22.8042,21.9113,24.3530,20.4892,22.3925
129.0000,19.1577,25.0820,27.7883,31.5986,26.1917,27.2603,22.9470,18.6418,21.0064,12.1429,27.6732,26.4881,8.2119,20.2314,25.4200,27.2635,23.0195,24.7416,26.1547,27.7552,24.9033,22.4452,26.2635,21.5405,23.9873
130.0000,18.5651,26.6327,28.8946,34.2748,27.0623,28.3488,23.9757,19.4520,22.4074,13.5968,28.5067,26.6384,8.1571,21.3607,27.0680,28.6151,24.2932,25.9182,27.3997,29.0056,26.2087,22.5824,27.6104,22.1693,24.7690
131.0000,17.6375,27.5566,29.4439,35.9599,27.3446,28.6652,24.3524,19.3560,23.0782,13.9256,28.7216,26.1686,8.1745,21.5985,27.9687,29.2103,24.8078,26.4027,27.8831,29.5665,26.7113,22.4218,28.3194,22.4059,24.6895
132.0000,16.4908,27.9090,29.4051,36.6788,27.0919,28.2830,24.1619,18.5013,23.0756,13.2791,28.4037,25.2135,8.2234,21.2480,28.1259,29.0962,24.6267,26.2277,27.6584,29.4979,26.4765,22.0364,28.3829,22.2693,23.7952
133.0000,15.3086,27.7816,28.7493,36.4872,26.3783,27.3326,23.5193,17.1207,22.5264,11.9317,27.6436,23.9411,8.2616,20.6857,27.5824,28.3792,23.8764,25.4589,26.8276,28.9048,25.6355,21.4668,27.8714,21.7716,22.2382
134.0000,14.3306,27.2783,27.4678,35.4538,25.2928,25.9853,22.5532,15.4906,21.5998,10.2280,26.5297,22.5320,8.2722,20.2764,26.4195,27.2105,22.7259,24.1908,25.5287,27.9220,24.3646,20.7249,26.9277,20.9279,20.2617
135.0000,13.8228,26.4920,25.5872,33.6484,23.9330,24.4285,21.3881,13.8779,20.4729,8.5085,25.1483,21.1590,8.2822,20.2883,24.7531,25.7634,21.3589,22.5397,23.9179,26.6951,22.8568,19.8049,25.7414,19.7653,18.1581
136.0000,14.0305,25.4874,23.1779,31.1353,22.3962,22.8362,20.1297,12.4858,19.2974,7.0340,23.5869,19.9651,8.3679,20.8290,22.7219,24.2042,19.9413,20.6320,22.1471,25.3575,21.2890,18.6955,24.5059,18.3268,16.2076
137.0000,15.1245,24.2945,20.3509,27.9758,20.7692,21.3398,18.8536,11.4131,18.1750,5.9279,21.9351,19.0439,8.6432,21.8175,20.4705,22.6654,18.5941,18.5905,20.3420,24.0107,19.7929,17.3892,23.3712,16.6676,14.6124
138.0000,17.1529,22.9161,17.2444,24.2355,19.1185,20.0064,17.5988,10.6370,17.1488,5.1534,20.2804,18.4250,9.2319,23.0037,18.1300,21.2249,17.3749,16.5206,18.5846,22.7102,18.4355,15.8858,22.4048,14.8465,13.4467
139.0000,20.0132,21.3471,14.0033,19.9957,17.4835,18.8313,16.3684,10.0272,16.2093,4.5328,18.6979,18.0687,10.2310,24.0283,15.8006,19.8989,16.2757,14.4983,16.9054,21.4621,17.2155,14.1922,21.5773,12.9142,12.6374
140.0000,23.4557,19.6025,10.7597,15.3645,15.8757,17.7483,15.1364,9.3867,15.3143,3.8054,17.2383,17.8752,11.6749,24.5131,13.5424,18.6504,15.2358,12.5664,15.2887,20.2321,16.0757,12.3203,20.7774,10.9066,11.9863
141.0000,27.1211,17.7451,7.6198,10.4850,14.2860,16.6576,13.8605,8.5117,14.4135,2.7097,15.9193,17.7071,13.5103,24.1561,11.3784,17.4118,14.1688,10.7389,13.6912,18.9647,14.9311,10.2878,19.8570,8.8443,11.2296
142.0000,30.6060,15.9019,4.6619,5.5377,12.6990,15.4639,12.5003,7.2543,13.4718,1.0673,14.7264,17.4237,15.5902,22.8092,9.3089,16.1169,12.9956,9.0141,12.0696,17.6099,13.7038,8.1227,18.6914,6.7423,10.1212
143.0000,33.5423,14.2621,1.9455,0.7344,11.1112,14.1162,11.0362,5.5702,12.4839,-1.1553,13.6250,16.9197,17.6925,20.5166,7.3337,14.7333,11.6762,7.3926,10.4103,16.1489,12.3567,5.8730,17.2361,4.6262,8.5164
144.0000,35.6697,13.0514,-0.4729,-3.6951,9.5484,12.6364,9.4859,3.5399,11.4770,-3.8253,12.5817,16.1583,19.5595,17.5047,5.4758,13.2849,10.2299,5.8955,8.7521,14.6133,10.9168,3.6172,15.5614,2.5493,6.4312
145.0000,36.8853,12.4860,-2.5253,-7.5236,8.0749,11.1291,7.9133,1.3548,10.5033,-6.6680,11.5884,15.1891,20.9513,14.1257,3.7966,11.8589,8.7400,4.5756,7.1941,13.0901,9.4796,1.4696,13.8511,0.6047,4.0595
146.0000,37.2558,12.7164,-4.1251,-10.5515,6.7925,9.7660,6.4272,-0.7254,9.6250,-9.3318,10.6797,14.1437,21.6990,10.7729,2.3976,10.5935,7.3398,3.5173,5.8848,11.7115,8.1945,-0.4218,12.3626,-1.0754,1.7395
147.0000,36.9913,13.7770,-5.1740,-12.6310,5.8254,8.7495,5.1681,-2.4339,8.8980,-11.4740,9.9365,13.2088,21.7460,7.7890,1.4048,9.6486,6.1850,2.8235,4.9938,10.6302,7.2327,-1.8905,11.3602,-2.3348,-0.1216
148.0000,36.3877,15.5576,-5.5811,-13.6862,5.2959,8.2654,4.2841,-3.5579,8.3607,-12.8432,9.4714,12.5814,21.1630,5.3967,0.9404,9.1677,5.4179,2.5923,4.6728,9.9865,6.7477,-2.7769,11.0422,-3.0205,-1.1466
149.0000,35.7550,17.8091,-5.2910,-13.7232,5.2956,8.4348,3.9023,-3.9842,8.0287,-13.3350,9.3989,12.4187,20.1327,3.6673,1.0890,9.2418,5.1348,2.8901,5.0165,9.8763,6.8377,-2.9591,11.4838,-3.0165,-1.0830
150.0000,35.3472,20.1878,-4.3090,-12.8281,5.8606,9.2833,4.1002,-3.7156,7.8976,-13.0048,9.7981,12.7957,18.9052,2.5361,1.8688,9.8858,5.3651,3.7286,6.0358,10.3270,7.5219,-2.3808,12.6157,-2.2745,0.1333
151.0000,35.3137,22.3303,-2.7163,-11.1517,6.9588,10.7334,4.8857,-2.8561,7.9500,-12.0368,10.6811,13.6842,17.7345,1.8566,3.2188,11.0336,6.0659,5.0542,7.6504,11.2912,8.7363,-1.0686,14.2453,-0.8308,2.3615
152.0000,35.6786,23.9411,-0.6646,-8.8824,8.4930,12.6241,6.1914,-1.5710,8.1631,-10.6805,11.9771,14.9577,16.8106,1.4724,5.0065,12.5546,7.1363,6.7541,9.7051,12.6567,10.3503,0.8679,16.1145,1.1943,5.2919
153.0000,36.3506,24.8701,1.6482,-6.2135,10.3197,14.7521,7.8843,-0.0362,8.5139,-9.1742,13.5412,16.4246,16.2065,1.2822,7.0556,14.2861,8.4426,8.6777,12.0052,14.2732,12.1998,3.2548,17.9748,3.6189,8.5227
154.0000,37.1558,25.1554,4.0189,-3.3095,12.2798,16.9215,9.7905,1.6081,8.9792,-7.6830,15.1860,17.8766,15.8531,1.2750,9.1867,16.0719,9.8508,10.6685,14.3616,15.9860,14.1253,5.8859,19.6556,6.2351,11.6570
155.0000,37.8816,25.0176,6.2829,-0.2820,14.2310,18.9882,11.7280,3.2840,9.5315,-6.2670,16.7277,19.1413,15.5528,1.5219,11.2572,17.7961,11.2539,12.5972,16.6312,17.6682,16.0061,8.5614,21.1032,8.8517,14.3904
156.0000,38.3193,24.8015,8.3499,2.8208,16.0737,20.8845,13.5404,4.9767,10.1349,-4.8910,18.0339,20.1214,15.0285,2.1287,13.1900,19.4014,12.5879,14.3853,18.7417,19.2423,17.7781,11.1212,22.3780,11.3290,16.5678
157.0000,38.2968,24.8793,10.2165,6.0075,17.7618,22.6187,15.1215,6.7107,10.7413,-3.4690,19.0554,20.8084,13.9987,3.1639,14.9792,20.8872,13.8317,16.0118,20.6927,20.6841,19.4322,13.4642,23.6107,13.5982,18.1952
158.0000,37.6973,25.5381,11.9530,9.3187,19.2958,24.2483,16.4252,8.5118,11.2931,-1.9274,19.8324,21.2687,12.2597,4.5905,16.6719,22.2883,14.9928,17.5012,22.5330,22.0102,20.9942,15.5492,24.9338,15.6578,19.4045
159.0000,36.4657,26.8852,13.6651,12.7912,20.7006,25.8379,17.4595,10.3683,11.7301,-0.2641,20.4711,21.6044,9.7552,6.2269,18.3298,23.6420,16.0837,18.8951,24.3208,23.2515,22.4931,17.3775,26.4100,17.5498,20.3868
160.0000,34.6074,28.7964,15.4412,16.4187,21.9955,27.4152,18.2645,12.2064,11.9995,1.4172,21.0960,21.9033,6.6130,7.7553,19.9845,24.9537,17.0972,20.2174,26.0809,24.4231,23.9280,18.9643,27.9842,19.3227,21.3134
161.0000,32.1836,30.9266,17.3024,20.1196,23.1656,28.9384,18.8845,13.8874,12.0665,2.9108,21.7940,22.1936,3.1393,8.7813,21.5993,26.1733,17.9897,21.4439,27.7713,25.4994,25.2463,20.3084,29.4742,20.9930,22.2693
162.0000,29.3063,32.7824,19.1695,23.7212,24.1456,30.2884,19.3408,15.2299,11.9188,3.9509,22.5674,22.4181,-0.2310,8.9291,23.0527,27.1901,18.6776,22.4870,29.2715,26.4034,26.3385,21.3715,30.6053,22.5166,23.2174
163.0000,26.1326,33.8400,20.8610,26.9658,24.8212,31.2860,19.6148,16.0475,11.5646,4.2787,23.3122,22.4383,-3.0175,7.9470,24.1498,27.8486,19.0488,23.2018,30.3974,27.0136,27.0536,22.0731,31.0780,23.7817,24.0017
164.0000,22.8547,33.6798,22.1228,29.5410,25.0491,31.7315,19.6464,16.1934,11.0236,3.7142,23.8317,22.0671,-4.7924,5.7889,24.6603,27.9814,18.9861,23.4130,30.9381,27.1873,27.2313,22.3037,30.6486,24.6240,24.3878
165.0000,19.6832,32.1001,22.6844,31.1274,24.6905,31.4550,19.3488,15.5956,10.3142,2.2115,23.8819,21.1217,-5.2702,2.6465,24.3735,27.4503,18.3965,22.9563,30.7071,26.7947,26.7403,21.9525,29.1986,24.8621,24.1259
166.0000,16.8224,29.1820,22.3252,31.4565,23.6490,30.3607,18.6344,14.2740,9.4411,-0.1205,23.2387,19.4822,-4.3691,-1.0806,23.1554,26.1828,17.2365,21.7230,29.5906,25.7527,25.5137,20.9409,26.7708,24.3431,23.0187
167.0000,14.4412,25.2850,20.9339,30.3639,21.9010,28.4565,17.4451,12.3352,8.3906,-3.0377,21.7657,17.1367,-2.2284,-4.8711,20.9898,24.1955,15.5282,19.6949,27.5817,24.0504,23.5711,19.2513,23.5653,22.9855,20.9772
168.0000,12.6449,20.9745,18.5429,27.8287,19.5112,25.8565,15.7772,9.9473,7.1357,-6.2133,19.4634,14.2020,0.8205,-8.2009,17.9941,21.5966,13.3606,16.9587,24.7897,21.7587,21.0205,16.9427,19.8949,20.8071,18.0480
169.0000,11.4572,16.8993,15.3281,23.9864,16.6270,22.7599,13.6923,7.3040,5.6504,-9.3088,16.4845,10.9108,4.3226,-10.6607,14.4016,18.5677,10.8759,13.6971,21.4227,19.0206,18.0419,14.1484,16.1170,17.9308,14.4103
170.0000,10.8190,13.6491,11.5749,19.1154,13.4546,19.4117,11.3129,4.5884,3.9305,-12.0413,13.1096,7.5695,7.7909,-12.0402,10.5177,15.3302,8.2450,10.1573,17.7487,16.0269,14.8547,11.0560,12.5610,14.5655,10.3432
171.0000,10.6056,11.6281,7.6183,13.5965,10.2217,16.0553,8.8011,1.9464,2.0117,-14.2316,9.6888,4.4982,10.8004,-12.3562,6.6600,12.1057,5.6387,6.6051,14.0455,12.9813,11.6794,7.8760,9.4712,10.9680,6.1755
172.0000,10.6595,10.9743,3.7756,7.8554,7.1372,12.8918,6.3270,-0.5255,-0.0204,-15.8204,6.5660,1.9662,13.0617,-11.8198,3.0997,9.0790,3.2008,3.2771,10.5526,10.0658,8.7026,4.8074,6.9775,7.3952,2.2287
173.0000,10.8296,11.5437,0.2885,2.2997,4.3578,10.0529,4.0366,-2.7781,-2.0361,-16.8535,4.0062,0.1411,14.4617,-10.7567,0.0178,6.3739,1.0296,0.3431,7.4374,7.4135,6.0518,2.0081,5.0977,4.0596,-1.2319
174.0000,11.0040,12.9577,-2.7105,-2.7361,1.9692,7.5938,2.0246,-4.7973,-3.8830,-17.4461,2.1446,-0.9378,15.0627,-9.5086,-2.5130,4.0447,-0.8300,-2.1147,4.7801,5.0949,3.7856,-0.4219,3.7643,1.0973,-4.0318
175.0000,11.1273,14.7011,-5.2004,-7.0271,-0.0164,5.5043,0.3227,-6.5899,-5.4181,-17.7390,0.9712,-1.3568,15.0646,-8.3461,-4.5183,2.0835,-2.3824,-4.0995,2.5815,3.1181,1.8990,-2.4431,2.8628,-1.4428,-6.1011
176.0000,11.1955,16.2414,-7.2445,-10.4691,-1.6453,3.7308,-1.0975,-8.1710,-6.5433,-17.8617,0.3527,-1.2974,14.7418,-7.4192,-6.0907,0.4391,-3.6694,-5.6795,0.7852,1.4435,0.3390,-4.0667,2.2699,-3.5899,-7.4691
177.0000,11.2330,17.1423,-8.9451,-13.0644,-2.9977,2.2046,-2.3066,-9.5587,-7.2321,-17.9110,0.0829,-0.9892,14.3710,-6.7557,-7.3471,-0.9591,-4.7534,-6.9555,-0.6905,0.0043,-0.9717,-5.3364,1.8801,-5.4245,-8.2436
178.0000,11.2587,17.1429,-10.3933,-14.8870,-4.1592,0.8652,-3.3905,-10.7726,-7.5385,-17.9475,-0.0522,-0.6562,14.1682,-6.2995,-8.3867,-2.1771,-5.6991,-8.0257,-1.9230,-1.2686,-2.1124,-6.3076,1.6183,-7.0436,-8.5796
179.0000,11.2574,16.1907,-11.6294,-16.0385,-5.1953,-0.3225,-4.4221,-11.8331,-7.5832,-18.0027,-0.2147,-0.4690,14.2469,-5.9690,-9.2622,-3.2591,-6.5581,-8.9563,-2.9622,-2.4266,-3.1437,-7.0297,1.4417,-8.5260,-8.6446
180.0000,11.1673,14.4257,-12.6246,-16.6064,-6.1346,-1.3611,-5.4378,-12.7579,-7.5201,-18.0895,-0.4750,-0.5134,14.6053,-5.7081,-9.9682,-4.2166,-7.3569,-9.7648,-3.8194,-3.4892,-4.0943,-7.5340,1.3364,-9.9069,-8.5845
181.0000,10.8928,12.1266,-13.2856,-16.6343,-6.9621,-2.2215,-6.4250,-13.5527,-7.4899,-18.2058,-0.8009,-0.7779,15.1412,-5.5085,-10.4480,-5.0263,-8.0902,-10.4166,-4.4670,-4.4377,-4.9532,-7.8275,1.3147,-11.1655,-8.4958
182.0000,10.3390,9.6377,-13.4807,-16.1138,-7.6226,-2.8480,-7.3223,-14.1973,-7.5756,-18.3290,-1.0751,-1.1613,15.6881,-5.3925,-10.6131,-5.6335,-8.7186,-10.8349,-4.8473,-5.2176,-5.6695,-7.8928,1.4152,-12.2280,-8.4080
183.0000,9.4581,7.2968,-13.0771,-14.9972,-8.0314,-3.1675,-8.0310,-14.6338,-7.7722,-18.4033,-1.1342,-1.4966,16.0598,-5.3672,-10.3689,-5.9608,-9.1716,-10.9194,-4.8854,-5.7467,-6.1584,-7.6922,1.7049,-12.9829,-8.2787
184.0000,8.2906,5.3796,-11.9790,-13.2285,-8.0902,-3.0989,-8.4350,-14.7622,-7.9811,-18.3282,-0.8164,-1.5851,16.0931,-5.3685,-9.6391,-5.9195,-9.3562,-10.5689,-4.5053,-5.9284,-6.3126,-7.1742,2.2755,-13.3049,-8.0029
185.0000,6.9844,4.0689,-10.1569,-10.7826,-7.7057,-2.5654,-8.4243,-14.4503,-8.0321,-17.9583,-0.0045,-1.2346,15.6791,-5.2256,-8.3834,-5.4250,-9.1704,-9.7036,-3.6447,-5.6685,-6.0206,-6.2833,3.2311,-13.0815,-7.4365
186.0000,5.7804,3.4491,-7.6621,-7.7006,-6.8076,-1.5079,-7.9174,-13.5597,-7.7285,-17.1227,1.3449,-0.2960,14.7768,-4.6670,-6.6074,-4.4135,-8.5223,-8.2838,-2.2694,-4.8933,-5.1881,-4.9727,4.6629,-12.2372,-6.4301
187.0000,4.9640,3.5175,-4.6246,-4.1113,-5.3650,0.0988,-6.8792,-11.9848,-6.9033,-15.6628,3.1913,1.3063,13.4103,-3.3762,-4.3651,-2.8594,-7.3514,-6.3229,-0.3856,-3.5674,-3.7622,-3.2193,6.6166,-10.7525,-4.8669
188.0000,4.7940,4.2035,-1.2373,-0.2298,-3.4003,2.2303,-5.3314,-9.6941,-5.4718,-13.4832,5.4191,3.5552,11.6546,-1.0880,-1.7554,-0.7920,-5.6491,-3.8938,1.9503,-1.7091,-1.7530,-1.0395,9.0587,-8.6732,-2.6978
189.0000,5.4269,5.3860,2.2678,3.6677,-0.9957,4.8005,-3.3548,-6.7626,-3.4646,-10.5991,7.8586,6.3341,9.6144,2.3052,1.0840,1.6953,-3.4744,-1.1278,4.6269,0.6012,0.7523,1.4975,11.8576,-6.1114,0.0357
190.0000,6.8622,6.9058,5.6477,7.2890,1.7071,7.6580,-1.0837,-3.3842,-1.0333,-7.1658,10.3150,9.4358,7.4050,6.6710,3.9857,4.4442,-0.9583,1.7951,7.4808,3.2201,3.5876,4.2638,14.7862,-3.2362,3.1958
191.0000,8.9245,8.5715,8.6745,10.3797,4.5177,10.5941,1.3078,0.1446,1.5737,-3.4761,12.5961,12.5867,5.1387,11.6127,6.7649,7.2436,1.7045,4.6630,10.3087,5.9527,6.5218,7.0771,17.5530,-0.2559,6.5621
192.0000,11.2927,10.1656,11.1582,12.7720,7.2176,13.3650,3.6250,3.4668,4.0598,0.0788,14.5355,15.4829,2.9191,16.5183,9.2354,9.8541,4.2781,7.2568,12.8895,8.5736,9.2868,9.7199,19.8555,2.6061,9.8638
193.0000,13.5680,11.4566,12.9631,14.4165,9.5884,15.7243,5.6751,6.2249,6.1389,3.0777,16.0087,17.8342,0.8418,20.6788,11.2286,12.0417,6.5186,9.3779,15.0138,10.8571,11.6173,11.9685,21.4447,5.1385,12.8203
194.0000,15.3650,12.2208,14.0181,15.3853,11.4439,17.4601,7.2912,8.1247,7.5897,5.1511,16.9418,19.4084,-1.0026,23.4452,12.6146,13.6140,8.2109,10.8761,16.5147,12.6091,13.2911,13.6300,22.1816,7.1680,15.1844
195.0000,16.3992,12.2746,14.3209,15.8459,12.6572,18.4275,8.3527,8.9857,8.2934,6.0559,17.3136,20.0665,-2.5270,24.3829,13.3205,14.4499,9.2030,11.6709,17.2934,13.6958,14.1646,14.5759,22.0678,8.5798,16.7749
196.0000,16.5469,11.5124,13.9331,16.0096,13.1790,18.5692,8.7989,8.7660,8.2449,5.7207,17.1514,19.7821,-3.6498,23.3778,13.3409,14.5168,9.4271,11.7612,17.3329,14.0614,14.1912,14.7645,21.2418,9.3282,17.4943
197.0000,15.8608,9.9390,12.9685,16.0684,13.0404,17.9178,8.6340,7.5561,7.5387,4.2523,16.5223,18.6409,-4.3036,20.6627,12.7375,13.8692,8.9047,11.2202,16.6937,13.7310,13.4213,14.2459,19.9371,9.4341,17.3292
198.0000,14.5396,7.6886,11.5738,16.1351,12.3387,16.5791,7.9205,5.5444,6.3354,1.8999,15.5202,16.8188,-4.4468,16.7557,11.6244,12.6289,7.7344,10.1763,15.4947,12.7978,11.9818,13.1452,18.4175,8.9718,16.3354
199.0000,12.8616,5.0194,9.9045,16.2047,11.2119,14.7024,6.7635,2.9671,4.8192,-1.0087,14.2502,14.5453,-4.0752,12.3288,10.1434,10.9535,6.0652,8.7833,13.8810,11.3983,10.0430,11.6298,16.9048,8.0457,14.6156
200.0000,11.1042,2.2823,8.1008,16.1477,9.8052,12.4458,5.2888,0.0563,3.1600,-4.1420,12.8118,12.0605,-3.2292,8.0454,8.4339,9.0008,4.0647,7.1874,11.9900,9.6824,7.7811,9.8686,15.5240,6.7648,12.2978
201.0000,9.4754,-0.1330,6.2677,15.7389,8.2421,9.9471,3.6195,-2.9982,1.4877,-7.2270,11.2851,9.5754,-1.9929,4.4159,6.6062,6.8992,1.8888,5.5004,9.9240,7.7858,5.3473,7.9950,14.2806,5.2214,9.5202
202.0000,8.0759,-1.8643,4.4646,14.7159,6.6057,7.3078,1.8587,-6.0643,-0.1155,-10.0831,9.7227,7.2460,-0.4837,1.7103,4.7257,4.7329,-0.3373,3.7858,7.7386,5.8129,2.8512,6.0844,13.0768,3.4795,6.4267
203.0000,6.9024,-2.6409,2.7076,12.8525,4.9366,4.5951,0.0799,-9.0596,-1.6076,-12.6217,8.1494,5.1644,1.1652,-0.0478,2.8120,2.5440,-2.5244,2.0608,5.4494,3.8329,0.3615,4.1539,11.7624,1.5767,3.1695
204.0000,5.8860,-2.3318,0.9823,10.0290,3.2458,1.8578,-1.6712,-11.9258,-2.9683,-14.8163,6.5698,3.3679,2.8261,-1.0143,0.8546,0.3509,-4.6115,0.3142,3.0531,1.8891,-2.0786,2.1820,10.2003,-0.4611,-0.0853
205.0000,4.9511,-0.9660,-0.7350,6.2799,1.5383,-0.8509,-3.3647,-14.6001,-4.1810,-16.6585,4.9828,1.8593,4.3956,-1.4120,-1.1627,-1.8274,-6.5492,-1.4674,0.5586,0.0163,-4.4283,0.1426,8.3282,-2.5972,-3.1560
206.0000,4.0704,1.2783,-2.4552,1.8058,-0.1616,-3.4529,-4.9709,-16.9940,-5.2193,-18.1197,3.3966,0.6306,5.8061,-1.4167,-3.2344,-3.9473,-8.2834,-3.2733,-1.9879,-1.7418,-6.6298,-1.9586,6.1945,-4.7628,-5.8536
207.0000,3.2962,4.1121,-4.1604,-3.0533,-1.7935,-5.8369,-6.4451,-18.9899,-6.0449,-19.1328,1.8407,-0.3192,7.0259,-1.0840,-5.3156,-5.9289,-9.7460,-5.0526,-4.4885,-3.3216,-8.5983,-4.0589,3.9577,-6.8432,-8.0003
208.0000,2.7558,7.1922,-5.7973,-7.8769,-3.2590,-7.8667,-7.7206,-20.4584,-6.6152,-19.6037,0.3695,-0.9775,8.0505,-0.3443,-7.3170,-7.6608,-10.8565,-6.7131,-6.8002,-4.6404,-10.2284,-6.0333,1.8495,-8.6800,-9.4550
209.0000,2.6111,10.1816,-7.2833,-12.2410,-4.4360,-9.4045,-8.7117,-21.2896,-6.8970,-19.4471,-0.9433,-1.3255,8.8849,0.9352,-9.1178,-9.0199,-11.5370,-8.1358,-8.7580,-5.6098,-11.4135,-7.7133,0.1140,-10.0903,-10.1396
210.0000,2.9963,12.8005,-8.5218,-15.7923,-5.2061,-10.3422,-9.3285,-21.4278,-6.8806,-18.6332,-2.0190,-1.3531,9.5276,2.8427,-10.5899,-9.9011,-11.7331,-9.2028,-10.2112,-6.1567,-12.0736,-8.9229,-1.0574,-10.8991,-10.0565
211.0000,3.9549,14.8576,-9.4213,-18.3029,-5.4863,-10.6309,-9.4979,-20.8969,-6.5873,-17.2274,-2.7911,-1.0761,9.9589,5.3139,-11.6267,-10.2467,-11.4350,-9.8262,-11.0584,-6.2453,-12.1799,-9.5230,-1.5758,-10.9779,-9.2914
212.0000,5.3986,16.2574,-9.9124,-19.6922,-5.2537,-10.2981,-9.1860,-19.8074,-6.0679,-15.4045,-3.2206,-0.5471,10.1406,8.0651,-12.1665,-10.0650,-10.6906,-9.9717,-11.2734,-5.8927,-11.7686,-9.4490,-1.4746,-10.2777,-7.9986
213.0000,7.1049,16.9872,-9.9570,-20.0154,-4.5566,-9.4455,-8.4131,-18.3402,-5.3918,-13.4308,-3.3027,0.1461,10.0268,10.6021,-12.2032,-9.4321,-9.6042,-9.6662,-10.9102,-5.1707,-10.9384,-8.7303,-0.8944,-8.8479,-6.3727
214.0000,8.7561,17.0894,-9.5494,-19.4254,-3.5066,-8.2292,-7.2571,-16.7122,-4.6315,-11.6139,-3.0645,0.8953,9.5839,12.3093,-11.7807,-8.4754,-8.3200,-8.9902,-10.0890,-4.1942,-9.8308,-7.4851,-0.0409,-6.8341,-4.6129
215.0000,10.0129,16.6307,-8.7107,-18.1228,-2.2539,-6.8256,-5.8427,-15.1346,-3.8468,-10.2366,-2.5535,1.5946,8.8121,12.5999,-10.9762,-7.3444,-6.9950,-8.0553,-8.9653,-3.0980,-8.6002,-5.8930,0.8698,-4.4537,-2.8911
216.0000,10.6001,15.6761,-7.4818,-16.3097,-0.9545,-5.3954,-4.3197,-13.7746,-3.0764,-9.4916,-1.8231,2.1653,7.7598,11.0806,-9.8779,-6.1769,-5.7685,-6.9765,-7.6936,-2.0097,-7.3825,-4.1531,1.6616,-1.9569,-1.3315
217.0000,10.3819,14.2747,-5.9206,-14.1623,0.2616,-4.0560,-2.8350,-12.7330,-2.3388,-9.4410,-0.9207,2.5715,6.5239,7.6810,-8.5676,-5.0736,-4.7371,-5.8486,-6.3973,-1.0267,-6.2718,-2.4423,2.2278,0.4192,-0.0069
218.0000,9.4030,12.4578,-4.1060,-11.8254,1.3109,-2.8693,-1.5087,-12.0420,-1.6429,-10.0106,0.1147,2.8229,5.2331,2.7025,-7.1148,-4.0866,-3.9436,-4.7352,-5.1536,-0.2051,-5.3134,-0.8847,2.5365,2.4902,1.0509
219.0000,7.8840,10.2483,-2.1473,-9.4280,2.1593,-1.8494,-0.4171,-11.6828,-1.0043,-11.0222,1.2451,2.9609,4.0161,-3.2326,-5.5838,-3.2261,-3.3813,-3.6717,-3.9973,0.4380,-4.5125,0.4578,2.6116,4.1487,1.8309
220.0000,6.1718,7.6740,-0.1942,-7.1059,2.8099,-0.9841,0.4090,-11.6125,-0.4610,-12.2541,2.4184,3.0344,2.9628,-9.3219,-4.0506,-2.4812,-3.0133,-2.6824,-2.9397,0.9094,-3.8554,1.5742,2.5022,5.3680,2.3241
221.0000,4.6562,4.7812,1.5619,-5.0198,3.2793,-0.2613,0.9754,-11.7916,-0.0810,-13.5091,3.5522,3.0727,2.0903,-14.7750,-2.6188,-1.8456,-2.7974,-1.8006,-1.9936,1.2204,-3.3338,2.4787,2.2533,6.1866,2.5124
222.0000,3.6778,1.6438,2.9015,-3.3546,3.5749,0.3097,1.3068,-12.1996,0.0423,-14.6697,4.5259,3.0658,1.3256,-19.0011,-1.4254,-1.3376,-2.7089,-1.0836,-1.1934,1.3687,-2.9619,3.1813,1.8894,6.6788,2.3727
223.0000,3.4483,-1.6344,3.6094,-2.2948,3.6808,0.6924,1.4291,-12.8344,-0.1919,-15.7222,5.1888,2.9618,0.5149,-21.7378,-0.6288,-1.0065,-2.7529,-0.6133,-0.5997,1.3323,-2.7794,3.6687,1.4175,6.9229,1.8919
224.0000,4.0058,-4.9224,3.5212,-1.9811,3.5599,0.8350,1.3566,-13.6962,-0.8639,-16.7426,5.3861,2.6817,-0.5414,-23.0852,-0.3764,-0.9193,-2.9602,-0.4794,-0.2862,1.0756,-2.8373,3.9018,0.8446,6.9753,1.0891
225.0000,5.2127,-8.0682,2.5747,-2.4590,3.1717,0.6961,1.0909,-14.7623,-2.0030,-17.8509,4.9982,2.1501,-2.0319,-23.4371,-0.7607,-1.1341,-3.3691,-0.7481,-0.3099,0.5689,-3.1726,3.8329,0.2035,6.8583,0.0343
226.0000,6.7965,-10.9052,0.8496,-3.6389,2.4999,0.2761,0.6295,-15.9651,-3.5632,-19.1480,3.9852,1.3302,-4.0708,-23.3331,-1.7754,-1.6668,-3.9992,-1.4270,-0.6777,-0.1874,-3.7787,3.4346,-0.4281,6.5644,-1.1461
227.0000,8.4189,-13.2586,-1.4186,-5.2822,1.5790,-0.3589,-0.0186,-17.1826,-5.4138,-20.6591,2.4195,0.2532,-6.6444,-23.2796,-3.2883,-2.4645,-4.8260,-2.4385,-1.3191,-1.1422,-4.5854,2.7310,-0.9230,6.0722,-2.2819
228.0000,9.7560,-14.9527,-3.8608,-7.0263,0.5086,-1.0713,-0.8175,-18.2486,-7.3488,-22.3003,0.4967,-0.9709,-9.5845,-23.5943,-5.0433,-3.3967,-5.7681,-3.6138,-2.0800,-2.1863,-5.4558,1.8152,-1.1209,5.3692,-3.1888
229.0000,10.5677,-15.8196,-6.0328,-8.4450,-0.5516,-1.6679,-1.6956,-18.9815,-9.1147,-23.8830,-1.4850,-2.1655,-12.5795,-24.3201,-6.6963,-4.2696,-6.6903,-4.7132,-2.7411,-3.1622,-6.2053,0.8461,-0.8612,4.4703,-3.7090
230.0000,10.7420,-15.7124,-7.5000,-9.1341,-1.4090,-1.9383,-2.5491,-19.2242,-10.4528,-25.1531,-3.1743,-3.1211,-15.2222,-25.2323,-7.8802,-4.8632,-7.4263,-5.4706,-3.0608,-3.8918,-6.6380,0.0211,-0.0231,3.4279,-3.7507
231.0000,10.3054,-14.5229,-7.9281,-8.8015,-1.8797,-1.7032,-3.2572,-18.8844,-11.1455,-25.8550,-4.2361,-3.6420,-17.0878,-25.9301,-8.2838,-4.9808,-7.8142,-5.6527,-2.8305,-4.2142,-6.5926,-0.4692,1.4388,2.3283,-3.3144
232.0000,9.4024,-12.2012,-7.1571,-7.3371,-1.8343,-0.8610,-3.7070,-17.9615,-11.0557,-25.8007,-4.4230,-3.5928,-17.8211,-25.9791,-7.7238,-4.4975,-7.7346,-5.1148,-1.9286,-4.0240,-5.9831,-0.4905,3.4766,1.2750,-2.4967
233.0000,8.2508,-8.7744,-5.2386,-4.8452,-1.2337,0.5818,-3.8187,-16.5518,-10.1520,-24.9215,-3.6298,-2.9310,-17.2139,-25.0571,-6.1894,-3.3948,-7.1415,-3.8399,-0.3552,-3.2988,-4.8228,-0.0039,5.9529,0.3671,-1.4701
234.0000,7.0890,-4.3572,-2.4247,-1.6275,-0.1430,2.5060,-3.5653,-14.8292,-8.5116,-23.2887,-1.9167,-1.7159,-15.2506,-23.0557,-3.8465,-1.7681,-6.0752,-1.9464,1.7611,-2.1061,-3.2234,0.9201,8.6663,-0.3247,-0.4432
235.0000,6.1269,0.8487,0.8891,1.8780,1.2812,4.7041,-2.9796,-13.0065,-6.3024,-21.0966,0.5060,-0.0914,-12.1131,-20.1078,-0.9994,0.1939,-4.6535,0.3369,4.1907,-0.5893,-1.3694,2.1167,11.3905,-0.7729,0.3886
236.0000,5.5118,6.5680,4.2524,5.1887,2.8270,6.9259,-2.1456,-11.2880,-3.7480,-18.6139,3.3288,1.7507,-8.1403,-16.5365,1.9808,2.2528,-3.0443,2.7233,6.6542,1.0660,0.5260,3.3700,13.9145,-0.9984,0.8865
237.0000,5.3146,12.4780,7.2554,7.8766,4.2773,8.9343,-1.1779,-9.8263,-1.0847,-16.1181,6.2131,3.6180,-3.7566,-12.7475,4.7404,4.1756,-1.4264,4.9333,8.8862,2.6739,2.2699,4.4695,16.0736,-1.0635,0.9964
238.0000,5.5342,18.2399,9.6076,9.6500,5.4593,10.5560,-0.1945,-8.6954,1.4795,-13.8328,8.8634,5.3573,0.6153,-9.1034,7.0171,5.7850,0.0495,6.7528,10.6922,4.0877,3.7307,5.2654,17.7625,-1.0555,0.7523
239.0000,6.1169,23.5294,11.1775,10.3993,6.2793,11.7121,0.7081,-7.8865,3.7959,-11.8852,11.0807,6.8793,4.6339,-5.8243,8.6846,6.9923,1.2890,8.0718,11.9844,5.2257,4.8593,5.7039,18.9311,-1.0668,0.2588
240.0000,6.9808,28.0597,11.9879,10.1997,6.7334,12.4240,1.4718,-7.3248,5.7894,-10.2925,12.7843,8.1589,8.0915,-2.9452,9.7567,7.8027,2.2651,8.8899,12.7862,6.0774,5.6858,5.8336,19.5666,-1.1771,-0.3425
241.0000,8.0397,31.5931,12.1715,9.2720,6.8929,12.7917,2.0799,-6.9019,7.4554,-8.9806,13.9986,9.2155,10.9301,-0.3433,10.3534,8.2963,3.0092,9.2937,13.2074,6.6895,6.2955,5.7802,19.6724,-1.4405,-0.9105
242.0000,9.2194,33.9435,11.9039,7.9176,6.8706,12.9553,2.5490,-6.5116,8.8429,-7.8231,14.8126,10.0801,13.2204,2.1806,10.6426,8.5906,3.5885,9.4125,13.3992,7.1391,6.7918,5.6986,19.2530,-1.8802,-1.3329
243.0000,10.4652,34.9743,11.3385,6.4455,6.7798,13.0504,2.9127,-6.0778,10.0301,-6.6886,15.3281,10.7644,15.1123,4.7966,10.7770,8.7975,4.0774,9.3696,13.5033,7.5022,7.2599,5.7173,18.3114,-2.4894,-1.5400
244.0000,11.7401,34.5987,10.5643,5.1107,6.6995,13.1712,3.2056,-5.5683,11.0983,-5.4801,15.6137,11.2422,16.7741,7.5563,10.8475,8.9903,4.5325,9.2452,13.6118,7.8298,7.7424,5.8942,16.8598,-3.2358,-1.4999
245.0000,13.0172,32.7910,9.5989,4.0774,6.6577,13.3530,3.4525,-4.9898,12.1136,-4.1564,15.6813,11.4520,18.3388,10.3517,10.8663,9.1883,4.9799,9.0617,13.7492,8.1375,8.2336,6.1971,14.9393,-4.0659,-1.2011
246.0000,14.2709,29.6071,8.4168,3.4124,6.6357,13.5751,3.6680,-4.3702,13.1162,-2.7309,15.4912,11.3192,19.8693,12.9368,10.7838,9.3648,5.4170,8.7953,13.8798,8.4119,8.6931,6.5151,12.6396,-4.9089,-0.6309
247.0000,15.4688,25.2118,7.0008,3.1022,6.5917,13.7830,3.8646,-3.7345,14.1203,-1.2532,14.9827,10.7927,21.3506,15.0049,10.5296,9.4713,5.8264,8.4077,13.9366,8.6290,9.0717,6.6984,10.1088,-5.6780,0.2397
248.0000,16.5685,19.9007,5.3954,3.0865,6.4928,13.9206,4.0659,-3.0860,15.1211,0.2181,14.1188,9.8806,22.7071,16.2921,10.0633,9.4706,6.1959,7.8844,13.8593,8.7775,9.3410,6.6121,7.5471,-6.2731,1.4568
249.0000,17.5192,14.1041,3.7407,3.2918,6.3444,13.9589,4.3173,-2.3976,16.1035,1.6388,12.9268,8.6739,23.8344,16.6722,9.4133,9.3647,6.5358,7.2656,13.6292,8.8776,9.5134,6.1880,5.1837,-6.5857,3.0692
250.0000,18.2673,8.3602,2.2723,3.6574,6.2047,13.9144,4.6881,-1.6191,17.0498,2.9902,11.5199,7.3451,24.6350,16.2081,8.6914,9.2072,6.8853,6.6567,13.2861,8.9868,9.6471,5.4568,3.2390,-6.5091,5.1011
251.0000,18.7648,3.2544,1.2830,4.1459,6.1785,13.8484,5.2623,-0.6959,17.9426,4.2758,10.0898,6.1222,25.0461,15.1415,8.0749,9.0964,7.3070,6.2126,12.9249,9.1907,9.8321,4.5508,1.8838,-5.9535,7.5230
252.0000,18.9777,-0.6690,1.0558,4.7400,6.3913,13.8489,6.1185,0.4056,18.7628,5.5039,8.8704,5.2399,25.0523,13.8245,7.7620,9.1489,7.8683,6.1012,12.6693,9.5803,10.1630,3.6741,1.2048,-4.8638,10.2305
253.0000,18.8926,-3.0054,1.7870,5.4299,6.9522,14.0019,7.3035,1.6771,19.4849,6.6670,8.0822,4.8834,24.6822,12.6149,7.9136,9.4639,8.6177,6.4549,12.6346,10.2239,10.7071,3.0503,1.1872,-3.2365,13.0415
254.0000,18.5202,-3.5755,3.5233,6.1998,7.9160,14.3601,8.8105,3.0574,20.0733,7.7257,7.8740,5.1387,23.9942,11.7711,8.6015,10.0888,9.5633,7.3269,12.8898,11.1411,11.4786,2.8610,1.7191,-1.1293,15.7147
255.0000,17.8955,-2.4706,6.1319,7.0192,9.2581,14.9211,10.5670,4.4377,20.4821,8.6058,8.2788,5.9652,23.0577,11.3825,9.7779,10.9970,10.6615,8.6656,13.4313,12.2896,12.4265,3.1950,2.6161,1.3393,17.9876
256.0000,17.0741,-0.0437,9.3125,7.8421,10.8700,15.6203,12.4397,5.6817,20.6618,9.2108,9.1985,7.1978,21.9382,11.3569,11.2771,12.0864,11.8211,10.3161,14.1776,13.5679,13.4433,4.0203,3.6626,4.0027,19.6252
257.0000,16.1277,3.1597,12.6513,8.6143,12.5776,16.3425,14.2566,6.6548,20.5702,9.4482,10.4215,8.5807,20.6902,11.4701,12.8497,13.1982,12.9208,12.0483,14.9852,14.8350,14.3880,5.1891,4.6566,6.6697,20.4665
258.0000,15.1371,6.5174,15.7001,9.2832,14.1772,16.9475,15.8402,7.2551,20.1874,9.2589,11.6694,9.8234,19.3584,11.4576,14.2175,14.1524,13.8371,13.6050,15.6816,15.9401,15.1207,6.4728,5.4489,9.1540,20.4565
259.0000,14.1857,9.4640,18.0620,9.8074,15.4792,17.3032,17.0445,7.4354,19.5268,8.6422,12.6590,10.6643,17.9844,11.1182,15.1362,14.7874,14.4729,14.7550,16.1053,16.7558,15.5354,7.6168,5.9676,11.3023,19.6551
260.0000,13.3533,11.6105,19.4605,10.1593,16.3479,17.3162,17.7837,7.2127,18.6404,7.6651,13.1647,10.9266,16.6132,10.3925,15.4448,14.9957,14.7788,15.3392,16.1409,17.2036,15.5830,8.4008,6.2222,13.0146,18.2204
261.0000,12.7099,12.8160,19.7769,10.3230,16.7258,16.9508,18.0470,6.6592,17.6137,6.4526,13.0624,10.5518,15.2952,9.3890,15.0924,14.7430,14.7615,15.2949,15.7406,17.2662,15.2775,8.6887,6.2883,14.2526,16.3704
262.0000,12.3097,13.1937,19.0504,10.2863,16.6373,16.2332,17.8925,5.8808,16.5504,5.1601,12.3473,9.6035,14.0826,8.3494,14.1345,14.0682,14.4753,14.6567,14.9271,16.9839,14.6855,8.4535,6.2776,15.0333,14.3337
263.0000,12.1855,13.0502,17.4451,10.0334,16.1727,15.2392,17.4255,4.9880,15.5504,3.9356,11.1215,8.2419,13.0198,7.5649,12.7052,13.0658,14.0025,13.5341,13.7786,16.4360,13.9017,7.7756,6.3024,15.4115,12.3020
264.0000,12.3431,12.7761,15.1975,9.5415,15.4576,14.0706,16.7663,4.0669,14.6871,2.8825,9.5592,6.6786,12.1346,7.2725,10.9742,11.8555,13.4263,12.0753,12.4028,15.7153,13.0198,6.8137,6.4427,15.4567,10.3956
265.0000,12.7574,12.7223,12.5598,8.7846,14.6182,12.8277,16.0180,3.1610,13.9893,2.0340,7.8596,5.1242,11.4314,7.5670,9.1034,10.5503,12.8072,10.4290,10.9079,14.9024,12.1074,5.7595,6.7246,15.2299,8.6505
266.0000,13.3714,13.0985,9.7552,7.7436,13.7523,11.5858,15.2434,2.2657,13.4352,1.3479,6.2030,3.7432,10.8930,8.3602,7.2161,9.2316,12.1686,8.7144,9.3795,14.0475,11.1921,4.7894,7.1155,14.7694,7.0281
267.0000,14.0995,13.9224,6.9522,6.4208,12.9126,10.3822,14.4579,1.3385,12.9591,0.7219,4.7202,2.6278,10.4881,9.4026,5.3839,7.9371,11.4956,7.0073,7.8697,13.1646,10.2623,4.0245,7.5349,14.0863,5.4439
268.0000,14.8358,15.0344,4.2607,4.8517,12.1067,9.2167,13.6381,0.3207,12.4707,0.0284,3.4819,1.7949,10.1829,10.3604,3.6341,6.6643,10.7475,5.3419,6.3986,12.2374,9.2807,3.5104,7.8798,13.1726,3.8060
269.0000,15.4689,16.1692,1.7439,3.1107,11.3092,8.0637,12.7427,-0.8354,11.8809,-0.8448,2.5062,1.2049,9.9512,10.9252,1.9693,5.3858,9.8777,3.7255,4.9668,11.2348,8.2065,3.2179,8.0561,12.0171,2.0530
270.0000,15.8986,17.0576,-0.5632,1.3066,10.4832,6.8921,11.7381,-2.1432,11.1281,-1.9554,1.7792,0.7938,9.7783,10.9184,0.3909,4.0709,8.8563,2.1588,3.5721,10.1305,7.0174,3.0649,8.0084,10.6240,0.1812
271.0000,16.0548,17.5243,-2.6368,-0.4313,9.6013,5.6854,10.6187,-3.5668,10.1964,-3.2836,1.2782,0.5075,9.6559,10.3566,-1.0826,2.7055,7.6863,0.6523,2.2247,8.9189,5.7253,2.9487,7.7405,9.0283,-1.7442
272.0000,15.9114,17.5469,-4.4550,-1.9740,8.6611,4.4569,9.4176,-5.0203,9.1214,-4.7287,0.9899,0.3269,9.5704,9.4542,-2.4093,1.3046,6.4092,-0.7650,0.9552,7.6238,4.3806,2.7818,7.3203,7.3022,-3.5963
273.0000,15.4937,17.2570,-5.9968,-3.2148,7.6905,3.2540,8.2017,-6.3809,7.9821,-6.1287,0.9167,0.2762,9.4912,8.5625,-3.5304,-0.0859,5.0994,-2.0472,-0.1865,6.2978,3.0646,2.5190,6.8670,5.5506,-5.2090
274.0000,14.8749,16.8838,-7.2473,-4.0855,6.7430,2.1518,7.0571,-7.5126,6.8823,-7.2951,1.0715,0.4134,9.3637,8.0608,-4.3857,-1.3982,3.8482,-3.1423,-1.1414,5.0126,1.8726,2.1706,6.5241,3.8966,-6.4074
275.0000,14.1623,16.6594,-8.2028,-4.5652,5.8853,1.2370,6.0667,-8.2938,5.9255,-8.0557,1.4639,0.8059,9.1159,8.2350,-4.9319,-2.5583,2.7440,-4.0052,-1.8550,3.8440,0.8927,1.7978,6.4231,2.4610,-7.0410
276.0000,13.4749,16.7206,-8.8733,-4.6777,5.1812,0.5878,5.2902,-8.6427,5.1933,-8.2929,2.0835,1.5002,8.6777,9.1809,-5.1572,-3.5029,1.8532,-4.6109,-2.2928,2.8560,0.1863,1.4941,6.6480,1.3401,-7.0097
277.0000,12.9177,17.0418,-9.2788,-4.4812,4.6775,0.2538,4.7513,-8.5351,4.7315,-7.9689,2.8892,2.4953,8.0105,10.7620,-5.0867,-4.1942,1.2086,-4.9605,-2.4502,2.0877,-0.2238,1.3564,7.2100,0.5888,-6.2812
278.0000,12.5581,17.4250,-9.4417,-4.0536,4.3937,0.2431,4.4357,-8.0088,4.5468,-7.1317,3.8068,3.7295,7.1369,12.6354,-4.7781,-4.6271,0.8061,-5.0806,-2.3562,1.5473,-0.3573,1.4563,8.0396,0.2121,-4.8960
279.0000,12.4103,17.5518,-9.3797,-3.4784,4.3187,0.5180,4.2988,-7.1566,4.6147,-5.9023,4.7381,5.0833,6.1590,14.3386,-4.3095,-4.8285,0.6102,-5.0172,-2.0695,1.2118,-0.2704,1.8161,8.9987,0.1668,-2.9615
280.0000,12.4330,17.0822,-9.1016,-2.8335,4.4131,1.0007,4.2811,-6.1096,4.8935,-4.4478,5.5782,6.4003,5.2556,15.4108,-3.7647,-4.8515,0.5651,-4.8267,-1.6690,1.0328,-0.0438,2.3983,9.9120,0.3718,-0.6379
281.0000,12.5389,15.7679,-8.6114,-2.1867,4.6156,1.5872,4.3223,-5.0146,5.3379,-2.9471,6.2369,7.5187,4.6532,15.5128,-3.2202,-4.7643,0.6068,-4.5669,-1.2412,0.9459,0.2318,3.1092,10.6077,0.7246,1.8799
282.0000,12.6164,13.5421,-7.9182,-1.5951,4.8507,2.1648,4.3723,-4.0126,5.9079,-1.5604,6.6560,8.3053,4.5765,14.5121,-2.7378,-4.6405,0.6732,-4.2932,-0.8690,0.8805,0.4694,3.8155,10.9594,1.1189,4.3827
283.0000,12.5557,10.5542,-7.0501,-1.1077,5.0381,2.6292,4.3941,-3.2216,6.5695,-0.4066,6.8196,8.6823,5.1888,12.5095,-2.3641,-4.5503,0.7087,-4.0565,-0.6224,0.7683,0.5946,4.3708,10.9153,1.4595,6.6650
284.0000,12.2744,7.1374,-6.0662,-0.7675,5.0994,2.8977,4.3592,-2.7264,7.2867,0.4448,6.7531,8.6406,6.5403,9.8023,-2.1340,-4.5561,0.6647,-3.9058,-0.5539,0.5495,0.5506,4.6435,10.5079,1.6722,8.5427
285.0000,11.7354,3.7180,-5.0612,-0.6123,4.9654,2.9148,4.2398,-2.5775,8.0117,0.9693,6.5115,8.2346,8.5400,6.7998,-2.0771,-4.7102,0.4969,-3.8900,-0.6979,0.1763,0.2990,4.5415,9.8396,1.7067,9.8661
286.0000,10.9531,0.6954,-4.1602,-0.6739,4.5813,2.6527,4.0011,-2.7941,8.6752,1.1734,6.1605,7.5622,10.9620,3.9165,-2.2217,-5.0548,0.1633,-4.0573,-1.0729,-0.3855,-0.1825,4.0264,9.0494,1.5351,10.5308
287.0000,9.9868,-1.6681,-3.5031,-0.9761,3.9116,2.1060,3.5995,-3.3721,9.1863,1.0782,5.7568,6.7348,13.4880,1.4755,-2.5956,-5.6210,-0.3756,-4.4521,-1.6847,-1.1560,-0.9022,3.1161,8.2682,1.1472,10.4855
288.0000,8.9245,-3.3107,-3.2228,-1.5341,2.9442,1.2845,2.9871,-4.2900,9.4426,0.7043,5.3306,5.8470,15.7746,-0.3517,-3.2232,-6.4272,-1.1524,-5.1081,-2.5300,-2.1406,-1.8556,1.8747,7.5774,0.5452,9.7348
289.0000,7.8609,-4.3692,-3.4222,-2.3555,1.6921,0.2073,2.1232,-5.5140,9.3491,0.0652,4.8775,4.9538,17.5273,-1.5564,-4.1198,-7.4766,-2.1849,-6.0408,-3.5977,-3.3301,-3.0264,0.3949,6.9816,-0.2592,8.3382
290.0000,6.8765,-5.1119,-4.1565,-3.4433,0.1938,-1.1001,0.9893,-6.9986,8.8431,-0.8318,4.3603,4.0624,18.5618,-2.2582,-5.2859,-8.7526,-3.4682,-7.2408,-4.8697,-4.7009,-4.3849,-1.2242,6.4061,-1.2452,6.4035
291.0000,6.0228,-5.8307,-5.4251,-4.7982,-1.4903,-2.6054,-0.3994,-8.6861,7.9150,-1.9773,3.7209,3.1391,18.8334,-2.6410,-6.7037,-10.2173,-4.9684,-8.6721,-6.3192,-6.2154,-5.8885,-2.8945,5.7188,-2.3813,4.0751
292.0000,5.3164,-6.7294,-7.1733,-6.4192,-3.2840,-4.2659,-1.9887,-10.5049,6.6193,-3.3481,2.8986,2.1305,18.4282,-2.8825,-8.3370,-11.8112,-6.6223,-10.2740,-7.9098,-7.8242,-7.4816,-4.5511,4.7723,-3.6224,1.5189
293.0000,4.7433,-7.8461,-9.3028,-8.2997,-5.1031,-6.0254,-3.6900,-12.3707,5.0700,-4.8976,1.8505,0.9903,17.5200,-3.1016,-10.1339,-13.4571,-8.3438,-11.9693,-9.5941,-9.4692,-9.0992,-6.1541,3.4538,-4.9098,-1.0950
294.0000,4.2697,-9.0369,-11.6865,-10.4197,-6.8646,-7.8120,-5.3948,-14.1904,3.4204,-6.5515,0.5684,-0.2954,16.3080,-3.3351,-12.0312,-15.0679,-10.0355,-13.6739,-11.3137,-11.0882,-10.6714,-7.6822,1.7282,-6.1737,-3.6082
295.0000,3.8569,-10.0249,-14.1842,-12.7352,-8.4952,-9.5412,-6.9939,-15.8699,1.8314,-8.2109,-0.9128,-1.6925,14.9560,-3.5482,-13.9593,-16.5567,-11.6041,-15.3072,-13.0016,-12.6198,-12.1294,-9.1218,-0.3376,-7.3398,-5.8869
296.0000,3.4746,-10.4975,-16.6549,-15.1712,-9.9378,-11.1234,-8.3986,-17.3241,0.4381,-9.7642,-2.5162,-3.1178,13.5534,-3.6677,-15.8464,-17.8480,-12.9752,-16.8014,-14.5866,-14.0096,-13.4121,-10.4559,-2.5779,-8.3407,-7.8290
297.0000,3.1090,-10.2178,-18.9659,-17.6197,-11.1554,-12.4746,-9.5561,-18.4870,-0.6779,-11.1028,-4.1355,-4.4530,12.1087,-3.6230,-17.6219,-18.8868,-14.1041,-18.1058,-15.9997,-15.2142,-14.4716,-11.6582,-4.7577,-9.1266,-9.3655
298.0000,2.7641,-9.1110,-21.0000,-19.9481,-12.1321,-13.5298,-10.4554,-19.3182,-1.5004,-12.1385,-5.6541,-5.5704,10.5765,-3.3772,-19.2192,-19.6453,-14.9788,-19.1890,-17.1817,-16.2055,-15.2768,-12.6932,-6.6216,-9.6757,-10.4585
299.0000,2.4561,-7.2964,-22.6607,-22.0170,-12.8720,-14.2530,-11.1235,-19.8063,-2.0731,-12.8172,-6.9677,-6.3629,8.9064,-2.9388,-20.5798,-20.1242,-15.6174,-20.0375,-18.0907,-16.9728,-15.8157,-13.5240,-7.9500,-9.9987,-11.0961
300.0000,2.2024,-5.0533,-23.8787,-23.7038,-13.3953,-14.6432,-11.6131,-19.9662,-2.4785,-13.1270,-8.0036,-6.7690,7.0921,-2.3509,-21.6573,-20.3493,-16.0585,-20.6530,-18.7081,-17.5228,-16.0941,-14.1232,-8.6062,-10.1364,-11.2882
301.0000,2.0082,-2.7340,-24.6182,-24.9247,-13.7338,-14.7331,-11.9849,-19.8336,-2.8072,-13.0981,-8.7317,-6.7884,5.2029,-1.6675,-22.4235,-20.3644,-16.3495,-21.0488,-19.0406,-17.8775,-16.1344,-14.4826,-8.5655,-10.1495,-11.0650
302.0000,1.8548,-0.6549,-24.8805,-25.6490,-13.9250,-14.5808,-12.2920,-19.4582,-3.1298,-12.7964,-9.1648,-6.4812,3.3814,-0.9288,-22.8709,-20.2214,-16.5351,-21.2465,-19.1183,-18.0709,-15.9717,-14.6176,-7.9174,-10.1026,-10.4785
303.0000,1.6925,0.9956,-24.7039,-25.8984,-14.0053,-14.2565,-12.5677,-18.8972,-3.4778,-12.3126,-9.3481,-5.9537,1.8061,-0.1490,-23.0139,-19.9702,-16.6500,-21.2714,-18.9872,-18.1424,-15.6503,-14.5625,-6.8436,-10.0455,-9.6051
304.0000,1.4400,2.1995,-24.1554,-25.7306,-14.0038,-13.8275,-12.8222,-18.2119,-3.8414,-11.7490,-9.3400,-5.3342,0.6299,0.6762,-22.8838,-19.6494,-16.7159,-21.1487,-18.6989,-18.1309,-15.2189,-14.3589,-5.5778,-9.9964,-8.5470
305.0000,0.9924,3.0848,-23.3163,-25.2125,-13.9368,-13.3450,-13.0458,-17.4672,-4.1829,-11.2082,-9.1926,-4.7456,-0.0855,1.5432,-22.5199,-19.2818,-16.7436,-20.8986,-18.2988,-18.0685,-14.7267,-14.0388,-4.3584,-9.9331,-7.4288
306.0000,0.2379,3.8433,-22.2643,-24.3893,-13.8046,-12.8366,-13.2166,-16.7311,-4.4611,-10.7827,-8.9359,-4.2832,-0.4144,2.4071,-21.9585,-18.8724,-16.7372,-20.5323,-17.8159,-17.9758,-14.2192,-13.6108,-3.3857,-9.7934,-6.3858
307.0000,-0.9208,4.6185,-21.0577,-23.2633,-13.5927,-12.3059,-13.3115,-16.0737,-4.6569,-10.5483,-8.5727,-4.0024,-0.5731,3.1555,-21.2234,-18.4127,-16.6999,-20.0510,-17.2585,-17.8603,-13.7344,-13.0546,-2.7919,-9.4879,-5.5458
308.0000,-2.5404,5.4041,-19.7281,-21.7894,-13.2776,-11.7399,-13.3140,-15.5623,-4.7919,-10.5584,-8.0865,-3.9193,-0.8800,3.6052,-20.3220,-17.8874,-16.6373,-19.4479,-16.6152,-17.7182,-13.3003,-12.3271,-2.6286,-8.9218,-5.0044
309.0000,-4.6146,5.9917,-18.2849,-19.8929,-12.8363,-11.1197,-13.2196,-15.2516,-4.9302,-10.8396,-7.4598,-4.0221,-1.6763,3.5293,-19.2499,-17.2844,-16.5582,-18.7156,-15.8645,-17.5399,-12.9336,-11.3818,-2.8704,-8.0227,-4.8012
310.0000,-7.0591,5.9900,-16.7327,-17.5050,-12.2595,-10.4343,-13.0369,-15.1713,-5.1643,-11.3878,-6.6976,-4.2876,-3.2301,2.7127,-18.0037,-16.6034,-16.4732,-17.8571,-14.9883,-17.3169,-12.6397,-10.1949,-3.4325,-6.7668,-4.9039
311.0000,-9.7092,4.9168,-15.0953,-14.6073,-11.5629,-9.6898,-12.7852,-15.3135,-5.5875,-12.1646,-5.8472,-4.6972,-5.6505,1.0223,-16.5979,-15.8629,-16.3908,-16.8973,-13.9863,-17.0496,-12.4146,-8.7914,-4.1927,-5.1974,-5.2056
312.0000,-12.3353,2.3369,-13.4376,-11.2684,-10.7947,-8.9143,-12.4917,-15.6254,-6.2618,-13.0978,-5.0063,-5.2460,-8.8376,-1.5305,-15.0802,-15.1024,-16.3144,-15.8913,-12.8870,-16.7525,-12.2476,-7.2607,-5.0162,-3.4306,-5.5401
313.0000,-14.6754,-1.9912,-11.8754,-7.6612,-10.0350,-8.1546,-12.1880,-16.0116,-7.1917,-14.0852,-4.3127,-5.9412,-12.4862,-4.7541,-13.5376,-14.3779,-16.2411,-14.9249,-11.7502,-16.4553,-12.1251,-5.7546,-5.7756,-1.6451,-5.7148
314.0000,-16.4809,-8.0078,-10.5642,-4.0495,-9.3845,-7.4670,-11.9081,-16.3477,-8.3139,-15.0055,-3.9167,-6.7915,-16.1434,-8.2879,-12.0892,-13.7532,-16.1631,-14.1048,-10.6599,-16.1991,-12.0334,-4.4648,-6.3673,-0.0571,-5.5550
315.0000,-17.5682,-15.3153,-9.6679,-0.7458,-8.9460,-6.9041,-11.6869,-16.5054,-9.5055,-15.7352,-3.9410,-7.7907,-19.3064,-11.6596,-10.8635,-13.2863,-16.0704,-13.5378,-9.7079,-16.0275,-11.9614,-3.5840,-6.7221,1.1154,-4.9494
316.0000,-17.8642,-23.2267,-9.3115,1.9516,-8.7995,-6.5024,-11.5579,-16.3821,-10.6109,-16.1699,-4.4387,-8.9016,-21.5340,-14.3827,-9.9657,-13.0156,-15.9561,-13.3038,-8.9716,-15.9757,-11.9019,-3.2583,-6.8122,1.6915,-3.8859
317.0000,-17.4343,-30.8871,-9.5319,3.8244,-8.9796,-6.2728,-11.5496,-15.9299,-11.4792,-16.2453,-5.3628,-10.0482,-22.5431,-16.0673,-9.4441,-12.9493,-15.8193,-13.4293,-8.4933,-16.0592,-11.8514,-3.5462,-6.6536,1.5621,-2.4669
318.0000,-16.4821,-37.4360,-10.2438,4.7829,-9.4604,-6.1985,-11.6804,-15.1731,-12.0011,-15.9545,-6.5586,-11.1189,-22.2644,-16.5187,-9.2658,-13.0597,-15.6671,-13.8698,-8.2666,-16.2677,-11.8091,-4.3942,-6.3049,0.7123,-0.8976
319.0000,-15.3180,-42.1681,-11.2353,4.8844,-10.1539,-6.2396,-11.9520,-14.2103,-12.1342,-15.3542,-7.7841,-11.9832,-20.8447,-15.7933,-9.3124,-13.2870,-15.5127,-14.5075,-8.2343,-16.5634,-11.7758,-5.6390,-5.8594,-0.7725,0.5512
320.0000,-14.2988,-44.6509,-12.1986,4.3112,-10.9235,-6.3431,-12.3443,-13.1966,-11.9107,-14.5579,-8.7569,-12.5172,-18.5987,-14.1974,-9.4000,-13.5505,-15.3713,-15.1688,-8.3001,-16.8876,-11.7522,-7.0373,-5.4316,-2.7190,1.5989
321.0000,-13.7502,-44.7743,-12.7955,3.3168,-11.6106,-6.4567,-12.8127,-12.3099,-11.4230,-13.7165,-9.2181,-12.6321,-15.9252,-12.2240,-9.3212,-13.7644,-15.2541,-15.6587,-8.3523,-17.1715,-11.7381,-8.3175,-5.1375,-4.8935,2.0171
322.0000,-13.8885,-42.7262,-12.7393,2.1535,-12.0681,-6.5400,-13.2911,-11.7090,-10.7934,-12.9876,-8.9954,-12.2966,-13.2123,-10.4420,-8.8985,-13.8565,-15.1624,-15.8037,-8.2906,-17.3502,-11.7308,-9.2388,-5.0711,-7.0398,1.6819
323.0000,-14.7607,-38.9097,-11.8744,1.0039,-12.1919,-6.5710,-13.6991,-11.4937,-10.1356,-12.5006,-8.0497,-11.5474,-10.7566,-9.3650,-8.0354,-13.7818,-15.0839,-15.4943,-8.0523,-17.3749,-11.7243,-9.6440,-5.2821,-8.9182,0.6050
324.0000,-16.2191,-33.8312,-10.2277,-0.0620,-11.9422,-6.5469,-13.9540,-11.6775,-9.5203,-12.3259,-6.4898,-10.4819,-8.7147,-9.3310,-6.7483,-13.5296,-14.9904,-14.7120,-7.6259,-17.2194,-11.7069,-9.4904,-5.7595,-10.3405,-1.0656
325.0000,-17.9390,-27.9935,-8.0154,-1.0913,-11.3478,-6.4762,-13.9842,-12.1810,-8.9526,-12.4542,-4.5497,-9.2360,-7.0957,-10.4219,-5.1692,-13.1198,-14.8404,-13.5349,-7.0509,-16.8801,-11.6591,-8.8522,-6.4262,-11.1926,-3.0739
326.0000,-19.4780,-21.8184,-5.5992,-2.2126,-10.4924,-6.3677,-13.7395,-12.8470,-8.3697,-12.7921,-2.5336,-7.9507,-5.7886,-12.4434,-3.5162,-12.5903,-14.5821,-12.1174,-6.4011,-16.3685,-11.5509,-7.8919,-7.1472,-11.4432,-5.1062
327.0000,-20.3646,-15.6147,-3.4017,-3.5715,-9.4863,-6.2180,-13.1974,-13.4746,-7.6566,-13.1756,-0.7405,-6.7377,-4.6139,-14.9682,-2.0371,-11.9789,-14.1600,-10.6492,-5.7579,-15.6992,-11.3403,-6.8115,-7.7507,-11.1370,-6.8513
328.0000,-20.1963,-9.5862,-1.8013,-5.2575,-8.4328,-6.0023,-12.3624,-13.8627,-6.6763,-13.3993,0.6090,-5.6517,-3.3802,-17.4301,-0.9427,-11.3053,-13.5203,-9.3046,-5.1802,-14.8783,-10.9744,-5.7966,-8.0585,-10.3773,-8.0556
329.0000,-18.7250,-3.8662,-1.0363,-7.2481,-7.3976,-5.6728,-11.2602,-13.8523,-5.3048,-13.2540,1.4260,-4.6797,-1.9326,-19.2474,-0.3482,-10.5587,-12.6178,-8.1961,-4.6811,-13.8951,-10.3936,-4.9680,-7.9194,-9.3007,-8.5620
330.0000,-15.9082,1.4432,-1.1450,-9.3884,-6.3918,-5.1651,-9.9279,-13.3566,-3.4629,-12.5670,1.7694,-3.7482,-0.1809,-19.9439,-0.2402,-9.6964,-11.4211,-7.3462,-4.2190,-12.7228,-9.5401,-4.3571,-7.2381,-8.0520,-8.3244
331.0000,-11.9160,6.2436,-1.9588,-11.4154,-5.3734,-4.4128,-8.4055,-12.3735,-1.1364,-11.2353,1.8226,-2.7482,1.8919,-19.2412,-0.4797,-8.6547,-9.9185,-6.6860,-3.7071,-11.3263,-8.3700,-3.9068,-5.9938,-6.7614,-7.4002
332.0000,-7.0917,10.4353,-3.1515,-13.0212,-4.2667,-3.3663,-6.7300,-10.9779,1.6196,-9.2462,1.8348,-1.5711,4.2378,-17.1044,-0.8411,-7.3689,-8.1222,-6.0803,-3.0386,-9.6780,-6.8657,-3.5001,-4.2442,-5.5305,-5.9244
333.0000,-1.8785,13.9316,-4.3292,-13.9381,-2.9936,-2.0119,-4.9349,-9.2999,4.6898,-6.6810,2.0466,-0.1458,6.7616,-13.7328,-1.0769,-5.7988,-6.0719,-5.3736,-2.1212,-7.7748,-5.0480,-3.0039,-2.1159,-4.4255,-4.0764
334.0000,3.2705,16.6849,-5.1377,-14.0174,-1.5074,-0.3843,-3.0548,-7.4935,7.9197,-3.7030,2.6182,1.5343,9.3390,-9.5037,-0.9878,-3.9501,-3.8357,-4.4409,-0.9104,-5.6518,-2.9816,-2.3150,0.2181,-3.4788,-2.0472
335.0000,7.9748,18.7085,-5.3538,-13.2803,0.1826,1.4307,-1.1309,-5.7080,11.1404,-0.5315,3.5837,3.4003,11.8337,-4.8868,-0.4796,-1.8863,-1.5079,-3.2307,0.5687,-3.3876,-0.7737,-1.3952,2.5664,-2.6949,-0.0158
336.0000,11.9851,20.0833,-4.9368,-11.9202,2.0034,3.3054,0.7836,-4.0656,14.1922,2.5914,4.8427,5.3176,14.1098,-0.3483,0.4120,0.2752,0.7985,-1.7843,2.2188,-1.0979,1.4379,-0.2839,4.7497,-2.0597,1.8663
337.0000,15.2042,20.9456,-4.0262,-10.2564,3.8298,5.0906,2.6241,-2.6507,16.9430,5.4364,6.1906,7.1136,16.0450,3.7304,1.5344,2.3821,2.9638,-0.2279,3.8887,1.0825,3.5035,0.9123,6.6258,-1.5491,3.4807
338.0000,17.6710,21.4560,-2.8885,-8.6495,5.5144,6.6436,4.3213,-1.5096,19.2984,7.8185,7.3804,8.6161,17.5443,7.1069,2.6657,4.2776,4.8772,1.2616,5.4089,3.0248,5.2874,2.0506,8.1079,-1.1350,4.7457
339.0000,19.5160,21.7625,-1.8299,-7.4024,6.9242,7.8566,5.8132,-0.6552,21.2050,9.6197,8.1944,9.6926,18.5563,9.6949,3.5823,5.8347,6.4543,2.5067,6.6334,4.6329,6.6921,2.9919,9.1728,-0.7897,5.6197
340.0000,20.9036,21.9667,-1.1037,-6.6751,7.9762,8.6794,7.0594,-0.0753,22.6475,10.8011,8.5076,10.2794,19.0894,11.5485,4.1249,6.9855,7.6513,3.3791,7.4782,5.8641,7.6778,3.6376,9.8592,-0.4869,6.1076
341.0000,21.9785,22.1045,-0.8394,-6.4386,8.6584,9.1305,8.0523,0.2633,23.6436,11.4027,8.3223,10.3942,19.2202,12.8204,4.2457,7.7359,8.4736,3.8350,7.9432,6.7375,8.2703,3.9523,10.2572,-0.2032,6.2672
342.0000,22.8298,22.1471,-1.0141,-6.4807,9.0312,9.2928,8.8215,0.4123,24.2359,11.5319,7.7654,10.1287,19.0912,13.7089,4.0195,8.1623,8.9744,3.9252,8.1128,7.3282,8.5560,3.9666,10.4901,0.0817,6.2117
343.0000,23.4804,22.0176,-1.4719,-6.4632,9.2083,9.2948,9.4274,0.4419,24.4847,11.3429,7.0510,9.6228,18.8902,14.4064,3.6195,8.3899,9.2439,3.7773,8.1329,7.7472,8.6626,3.7609,10.6914,0.3824,6.1018
344.0000,23.8988,21.6195,-1.9838,-6.0150,9.3216,9.2814,9.9452,0.4386,24.4593,11.0102,6.4181,9.0298,18.8163,15.0603,3.2635,8.5583,9.3891,3.5559,8.1712,8.1123,8.7310,3.4356,10.9797,0.7046,6.1242
345.0000,24.0274,20.8666,-2.3271,-4.8350,9.4818,9.3801,10.4427,0.4969,24.2296,10.6996,6.0653,8.4794,19.0354,15.7516,3.1478,8.7838,9.5098,3.4127,8.3717,8.5181,8.8830,3.0788,11.4352,1.0412,6.4570
346.0000,23.8144,19.7060,-2.3582,-2.7782,9.7452,9.6708,10.9584,0.7050,23.8571,10.5420,6.0977,8.0502,19.6386,16.4934,3.3891,9.1279,9.6745,3.4418,8.8155,9.0105,9.1937,2.7419,12.0811,1.3697,7.2280
347.0000,23.2377,18.1318,-2.0571,0.0985,10.0970,10.1673,11.4857,1.1242,23.3877,10.6120,6.5034,7.7566,20.6150,17.2436,3.9900,9.5807,9.9046,3.6544,9.4973,9.5755,9.6737,2.4283,12.8746,1.6524,8.4756
348.0000,22.3158,16.1875,-1.5307,3.5402,10.4548,10.8124,11.9700,1.7688,22.8459,10.9172,7.1631,7.5541,21.8475,17.9264,4.8387,10.0643,10.1680,3.9770,10.3263,10.1419,10.2669,2.0999,13.7095,1.8395,10.1251
349.0000,21.1020,13.9600,-0.9774,7.1466,10.6922,11.4904,12.3178,2.5913,22.2341,11.3978,7.8873,7.3577,23.1352,18.4551,5.7395,10.4535,10.3871,4.2755,11.1470,10.5994,10.8633,1.6965,14.4312,1.8765,11.9878
350.0000,19.6679,11.5696,-0.6243,10.4556,10.6740,12.0515,12.4196,3.4809,21.5354,11.9387,8.4700,7.0698,24.2380,18.7513,6.4656,10.6087,10.4564,4.3948,11.7767,10.8253,11.3237,1.1609,14.8628,1.7149,13.7890
351.0000,18.0837,9.1573,-0.6600,13.0371,10.2936,12.3433,12.1768,4.2769,20.7215,12.3907,8.7403,6.6070,24.9302,18.7556,6.8159,10.4117,10.2679,4.2022,12.0475,10.7140,11.5110,0.4617,14.8375,1.3229,15.2178
352.0000,16.4020,6.8699,-1.1831,14.5738,9.5018,12.2421,11.5285,4.7977,19.7636,12.5983,8.5996,5.9202,25.0507,18.4317,6.6616,9.7945,9.7364,3.6221,11.8425,10.2019,11.3199,-0.3939,14.2302,0.6945,15.9904
353.0000,14.6537,4.8428,-2.1814,14.9109,8.3186,11.6764,10.4693,4.8773,18.6424,12.4282,8.0331,5.0027,24.5340,17.7637,5.9690,8.7546,8.8196,2.6519,11.1177,9.2812,10.6979,-1.3606,12.9835,-0.1449,15.9106
354.0000,12.8542,3.1804,-3.5457,14.0674,6.8275,10.6394,9.0535,4.4035,17.3573,11.7939,7.0982,3.8855,23.4155,16.7526,4.7961,7.3526,7.5277,1.3575,9.9050,8.0007,9.6548,-2.3684,11.1200,-1.1393,14.9124
355.0000,11.0184,1.9354,-5.1109,12.2114,5.1536,9.1879,7.3860,3.3452,15.9298,10.6723,5.8953,2.6238,21.8104,15.4121,3.2671,5.6965,5.9218,-0.1494,8.2994,6.4548,8.2575,-3.3423,8.7405,-2.2087,13.0741
356.0000,9.1778,1.0925,-6.7082,9.6124,3.4346,7.4293,5.6014,1.7639,14.4027,9.1083,4.5331,1.2807,19.8742,13.7696,1.5355,3.9162,4.1022,-1.7420,6.4341,4.7638,6.6154,-4.2233,6.0083,-3.2604,10.6013
357.0000,7.3915,0.5628,-8.2104,6.5830,1.7920,5.5027,3.8383,-0.1959,12.8350,7.2089,3.1011,-0.0872,17.7591,11.8691,-0.2510,2.1379,2.1903,-3.3063,4.4536,3.0528,4.8584,-4.9813,3.1231,-4.2028,7.7837
358.0000,5.7472,0.1946,-9.5565,3.4273,0.3124,3.5565,2.2168,-2.3333,11.2940,5.1271,1.6576,-1.4360,15.5791,9.7770,-1.9746,0.4640,0.3087,-4.7601,2.4913,1.4317,3.1155,-5.6182,0.2914,-4.9579,4.9378
359.0000,4.3497,-0.1960,-10.7483,0.4036,-0.9588,1.7294,0.8218,-4.4284,9.8469,3.0384,0.2342,-2.7325,13.3949,7.5862,-3.5545,-1.0353,-1.4344,-6.0561,0.6558,-0.0163,1.4980,-6.1591,-2.3003,-5.4711,2.3495
360.0000,3.2998,-0.7802,-11.8250,-2.2941,-2.0102,0.1358,-0.3015,-6.2823,8.5545,1.1167,-1.1471,-3.9465,11.2214,5.4159,-4.9391,-2.3215,-2.9564,-7.1727,-0.9724,-1.2393,0.0895,-6.6357,-4.5047,-5.7151,0.2300
361.0000,2.6707,-1.6661,-12.8255,-4.5396,-2.8495,-1.1422,-1.1430,-7.7487,7.4663,-0.4900,-2.4540,-5.0408,9.0522,3.4042,-6.0917,-3.3782,-4.2032,-8.0986,-2.3365,-2.2140,-1.0564,-7.0679,-6.2234,-5.6888,-1.3060
362.0000,2.4882,-2.8573,-13.7551,-6.2684,-3.4869,-2.0577,-1.7163,-8.7521,6.6176,-1.6774,-3.6301,-5.9652,6.8923,1.6939,-6.9763,-4.2002,-5.1484,-8.8179,-3.3978,-2.9397,-1.9131,-7.4503,-7.4072,-5.4124,-2.2401
363.0000,2.7209,-4.2344,-14.5698,-7.4690,-3.9233,-2.5995,-2.0467,-9.2896,6.0276,-2.3968,-4.5951,-6.6585,4.7845,0.4133,-7.5536,-4.7865,-5.7894,-9.3048,-4.1314,-3.4308,-2.4767,-7.7485,-8.0506,-4.9202,-2.6328
364.0000,3.2845,-5.5691,-15.1829,-8.1758,-4.1489,-2.7894,-2.1620,-9.4195,5.6969,-2.6576,-5.2604,-7.0588,2.8196,-0.3442,-7.7874,-5.1383,-6.1432,-9.5281,-4.5278,-3.7126,-2.7617,-7.9061,-8.1837,-4.2549,-2.5960
365.0000,4.0580,-6.5703,-15.4924,-8.4642,-4.1502,-2.6799,-2.0890,-9.2403,5.6062,-2.5229,-5.5541,-7.1206,1.1268,-0.5355,-7.6616,-5.2652,-6.2442,-9.4663,-4.5985,-3.8188,-2.8003,-7.8625,-7.8637,-3.4641,-2.2666
366.0000,4.9069,-6.9517,-15.4193,-8.4453,-3.9245,-2.3496,-1.8566,-8.8670,5.7142,-2.0969,-5.4482,-6.8319,-0.1538,-0.1762,-7.1978,-5.1934,-6.1424,-9.1253,-4.3838,-3.7925,-2.6422,-7.5740,-7.1681,-2.6001,-1.7852
367.0000,5.7084,-6.5048,-14.9416,-8.2565,-3.4935,-1.8958,-1.5012,-8.4110,5.9594,-1.5079,-4.9761,-6.2259,-0.9068,0.6636,-6.4675,-4.9731,-5.9022,-8.5519,-3.9561,-3.6861,-2.3553,-7.0336,-6.1894,-1.7214,-1.2836
368.0000,6.3701,-5.1548,-14.1119,-8.0455,-2.9116,-1.4244,-1.0716,-7.9657,6.2645,-0.8873,-4.2341,-5.3828,-1.0742,1.8723,-5.5898,-4.6793,-5.5983,-7.8361,-3.4170,-3.5597,-2.0222,-6.2826,-5.0281,-0.8938,-0.8771
369.0000,6.8384,-2.9836,-13.0523,-7.9485,-2.2639,-1.0355,-0.6288,-7.5984,6.5471,-0.3495,-3.3643,-4.4175,-0.6741,3.3168,-4.7145,-4.4038,-5.3083,-7.0993,-2.8839,-3.4759,-1.7327,-5.4099,-3.7852,-0.1893,-0.6589
370.0000,7.0967,-0.2132,-11.9260,-8.0652,-1.6534,-0.8084,-0.2402,-7.3484,6.7329,0.0255,-2.5228,-3.4576,0.2003,4.8642,-3.9918,-4.2389,-5.1021,-6.4711,-2.4700,-3.4905,-1.5711,-4.5386,-2.5521,0.3204,-0.6924
371.0000,7.1548,2.8482,-10.8959,-8.4381,-1.1798,-0.7877,0.0323,-7.2279,6.7714,0.2034,-1.8423,-2.6162,1.4010,6.3984,-3.5392,-4.2569,-5.0297,-6.0594,-2.2612,-3.6427,-1.6002,-3.8033,-1.4000,0.5741,-1.0005
372.0000,7.0347,5.8783,-10.0835,-9.0430,-0.9173,-0.9748,0.1457,-7.2250,6.6481,0.1971,-1.4010,-1.9671,2.7575,7.8287,-3.4137,-4.4920,-5.1108,-5.9255,-2.2971,-3.9456,-1.8475,-3.3220,-0.3726,0.5347,-1.5562
373.0000,6.7590,8.6123,-9.5400,-9.7932,-0.8959,-1.3278,0.0881,-7.3077,6.3905,0.0600,-1.2069,-1.5308,4.1121,9.0897,-3.5998,-4.9302,-5.3299,-6.0693,-2.5620,-4.3825,-2.2971,-3.1707,0.5183,0.2012,-2.2778
374.0000,6.3458,10.8927,-9.2405,-10.5603,-1.0941,-1.7711,-0.1164,-7.4292,6.0646,-0.1296,-1.2010,-1.2735,5.3475,10.1333,-4.0160,-5.5110,-5.6387,-6.4314,-2.9891,-4.9083,-2.8904,-3.3657,1.2891,-0.3835,-3.0359
375.0000,5.8118,12.6835,-9.1003,-11.2042,-1.4433,-2.2125,-0.4112,-7.5352,5.7616,-0.2885,-1.2803,-1.1212,6.4004,10.9198,-4.5391,-6.1417,-5.9666,-6.9100,-3.4785,-5.4586,-3.5375,-3.8577,1.9758,-1.1337,-3.6736
376.0000,5.1820,14.0480,-9.0082,-11.6071,-1.8440,-2.5637,-0.7192,-7.5741,5.5776,-0.3487,-1.3312,-0.9836,7.2592,11.4119,-5.0384,-6.7204,-6.2374,-7.3888,-3.9224,-5.9631,-4.1362,-4.5393,2.6224,-1.9309,-4.0382
377.0000,4.5007,15.1017,-8.8649,-11.7001,-2.1889,-2.7597,-0.9592,-7.5072,5.5905,-0.2718,-1.2633,-0.7805,7.9497,11.5752,-5.4101,-7.1607,-6.3866,-7.7668,-4.2317,-6.3600,-4.5956,-5.2637,3.2695,-2.6426,-4.0164
378.0000,3.8397,15.9559,-8.6133,-11.4755,-2.3861,-2.7713,-1.0642,-7.3180,5.8420,-0.0556,-1.0331,-0.4626,8.5143,11.3873,-5.6011,-7.4118,-6.3769,-7.9802,-4.3567,-6.6082,-4.8552,-5.8706,3.9475,-3.1459,-3.5642
379.0000,3.2972,16.6739,-8.2522,-10.9839,-2.3773,-2.6072,-0.9949,-7.0178,6.3263,0.2708,-0.6523,-0.0215,8.9942,10.8500,-5.6164,-7.4672,-6.2056,-8.0130,-4.2950,-6.6936,-4.8977,-6.2146,4.6752,-3.3498,-2.7201
380.0000,2.9854,17.2517,-7.8286,-10.3147,-2.1461,-2.3076,-0.7452,-6.6439,6.9926,0.6593,-0.1778,0.5140,9.4168,10.0010,-5.5092,-7.3616,-5.9031,-7.8919,-4.0871,-6.6285,-4.7501,-6.1901,5.4629,-3.2116,-1.5978
381.0000,3.0091,17.6270,-7.4150,-9.5709,-1.7170,-1.9294,-0.3406,-6.2524,7.7569,1.0592,0.3109,1.0927,9.7927,8.9157,-5.3587,-7.1564,-5.5239,-7.6707,-3.8004,-6.4454,-4.4736,-5.7483,6.3176,-2.7430,-0.3571
382.0000,3.4381,17.7117,-7.0792,-8.8441,-1.1447,-1.5315,0.1710,-5.9049,8.5218,1.4316,0.7376,1.6598,10.1188,7.6981,-5.2434,-6.9205,-5.1323,-7.4103,-3.5091,-6.1873,-4.1466,-4.9050,7.2447,-2.0045,0.8364
383.0000,4.2822,17.4298,-6.8585,-8.1996,-0.5009,-1.1632,0.7312,-5.6551,9.1975,1.7569,1.0508,2.1742,10.3840,6.4576,-5.2195,-6.7125,-4.7886,-7.1611,-3.2764,-5.8983,-3.8461,-3.7370,8.2434,-1.0905,1.8526
384.0000,5.4753,16.7485,-6.7482,-7.6743,0.1398,-0.8597,1.2823,-5.5378,9.7180,2.0330,1.2327,2.6169,10.5737,5.2793,-5.3116,-6.5704,-4.5390,-6.9553,-3.1450,-5.6178,-3.6323,-2.3698,9.2958,-0.1086,2.6247
385.0000,6.8755,15.6879,-6.7071,-7.2873,0.7090,-0.6464,1.7742,-5.5659,10.0491,2.2637,1.2945,2.9882,10.6709,4.1965,-5.5156,-6.5115,-4.4127,-6.8083,-3.1366,-5.3790,-3.5425,-0.9577,10.3528,0.8414,3.1551
386.0000,8.2817,14.3090,-6.6776,-7.0559,1.1494,-0.5483,2.1674,-5.7343,10.1859,2.4448,1.2619,3.2966,10.6546,3.1753,-5.8131,-6.5410,-4.4252,-6.7295,-3.2613,-5.2111,-3.5920,0.3391,11.3230,1.6825,3.4973
387.0000,9.4664,12.6857,-6.6127,-7.0094,1.4151,-0.5987,2.4305,-6.0303,10.1429,2.5513,1.1560,3.5425,10.4971,2.1194,-6.1885,-6.6649,-4.5857,-6.7345,-3.5290,-5.1435,-3.7835,1.3773,12.0724,2.3678,3.7202
388.0000,10.2158,10.8732,-6.4987,-7.1927,1.4705,-0.8433,2.5380,-6.4462,9.9407,2.5334,0.9802,3.7062,10.1659,0.8978,-6.6415,-6.9013,-4.9037,-6.8536,-3.9583,-5.2077,-4.1170,2.0498,12.4381,2.8792,3.8693
389.0000,10.3699,8.8898,-6.3657,-7.6551,1.2903,-1.3352,2.4678,-6.9877,9.5950,2.3249,0.7169,3.7445,9.6297,-0.6110,-7.1909,-7.2832,-5.3927,-7.1309,-4.5772,-5.4363,-4.5975,2.2993,12.2583,3.2198,3.9380
390.0000,9.8511,6.7179,-6.2812,-8.4278,0.8610,-2.1208,2.2032,-7.6747,9.1106,1.8622,0.3364,3.5982,8.8698,-2.4700,-7.8656,-7.8531,-6.0664,-7.6135,-5.4147,-5.8560,-5.2363,2.1229,11.4107,3.4032,3.8611
391.0000,8.6761,4.3268,-6.3292,-9.4964,0.1861,-3.2208,1.7370,-8.5341,8.4844,1.1092,-0.1857,3.2097,7.8932,-4.6460,-8.6890,-8.6475,-6.9318,-8.3345,-6.4854,-6.4790,-6.0439,1.5696,9.8504,3.4445,3.5345
392.0000,6.9461,1.7073,-6.5825,-10.7806,-0.7093,-4.6133,1.0773,-9.5844,7.7132,0.0782,-0.8500,2.5434,6.7416,-6.9964,-9.6618,-9.6801,-7.9780,-9.2951,-7.7735,-7.2937,-7.0203,0.7283,7.6338,3.3564,2.8552
393.0000,4.8200,-1.0953,-7.0772,-12.1300,-1.7768,-6.2251,0.2516,-10.8199,6.8047,-1.1597,-1.6224,1.6022,5.4927,-9.2878,-10.7509,-10.9268,-9.1696,-10.4545,-9.2233,-8.2599,-8.1432,-0.2887,4.9201,3.1490,1.7673
394.0000,2.4773,-3.9664,-7.7997,-13.3435,-2.9467,-7.9378,-0.6927,-12.1997,5.7850,-2.4816,-2.4357,0.4331,4.2504,-11.2446,-11.8906,-12.3225,-10.4449,-11.7314,-10.7418,-9.3110,-9.3635,-1.3665,1.9462,2.8345,0.2987
395.0000,0.0803,-6.7313,-8.6890,-14.2089,-4.1373,-9.6076,-1.6939,-13.6470,4.7017,-3.7371,-3.2053,-0.8808,3.1260,-12.6149,-12.9962,-13.7687,-11.7239,-13.0195,-12.2135,-10.3643,-10.6075,-2.4059,-1.0202,2.4314,-1.4270
396.0000,-2.2527,-9.1895,-9.6542,-14.5544,-5.2676,-11.0949,-2.6866,-15.0598,3.6180,-4.7828,-3.8545,-2.2401,2.2150,-13.2339,-13.9858,-15.1535,-12.9220,-14.2117,-13.5264,-11.3369,-11.7898,-3.3394,-3.7363,1.9672,-3.2090
397.0000,-4.4573,-11.1619,-10.6007,-14.2974,-6.2718,-12.2955,-3.6129,-16.3319,2.6026,-5.5179,-4.3405,-3.5538,1.5779,-13.0664,-14.8035,-16.3762,-13.9679,-15.2259,-14.5992,-12.1628,-12.8302,-4.1374,-6.0321,1.4765,-4.8140
398.0000,-6.5140,-12.5363,-11.4549,-13.4745,-7.1098,-13.1624,-4.4328,-17.3756,1.7168,-5.9074,-4.6719,-4.7602,1.2302,-12.2112,-15.4345,-17.3699,-14.8175,-16.0247,-15.4012,-12.8062,-13.6712,-4.8072,-7.8367,0.9948,-6.0340
399.0000,-8.4237,-13.2931,-12.1790,-12.2407,-7.7719,-13.7126,-5.1288,-18.1403,1.0043,-5.9859,-4.9085,-5.8367,1.1471,-10.8675,-15.9066,-18.1128,-15.4605,-16.6199,-15.9574,-13.2651,-14.2884,-5.3822,-9.1740,0.5499,-6.7380
400.0000,-10.1783,-13.5040,-12.7719,-10.8356,-8.2738,-14.0131,-5.7030,-18.6186,0.4867,-5.8382,-5.1435,-6.7942,1.2807,-9.2680,-16.2761,-18.6264,-15.9153,-17.0617,-16.3365,-13.5658,-14.6910,-5.9061,-10.1296,0.1548,-6.9013
401.0000,-11.7357,-13.3049,-13.2563,-9.5224,-8.6451,-14.1526,-6.1686,-18.8381,0.1664,-5.5626,-5.4702,-7.6572,1.5830,-7.6025,-16.6032,-18.9592,-16.2153,-17.4155,-16.6228,-13.7472,-14.9097,-6.4143,-10.8012,-0.1957,-6.6025
402.0000,-13.0106,-12.8519,-13.6580,-8.5170,-8.9139,-14.2066,-6.5375,-18.8414,0.0347,-5.2291,-5.9454,-8.4391,2.0279,-5.9537,-16.9240,-19.1628,-16.3891,-17.7331,-16.8829,-13.8418,-14.9786,-6.9189,-11.2500,-0.5223,-5.9894
403.0000,-13.8850,-12.2810,-13.9872,-7.9258,-9.0941,-14.2075,-6.8110,-18.6614,0.0808,-4.8475,-6.5606,-9.1202,2.6209,-4.2696,-17.2317,-19.2683,-16.4444,-18.0307,-17.1373,-13.8603,-14.9151,-7.4004,-11.4713,-0.8531,-5.2265
404.0000,-14.2382,-11.6844,-14.2292,-7.7124,-9.1787,-14.1313,-6.9758,-18.3029,0.2984,-4.3577,-7.2319,-9.6396,3.3939,-2.3814,-17.4721,-19.2730,-16.3597,-18.2801,-17.3481,-13.7840,-14.7086,-7.8102,-11.3976,-1.2125,-4.4420
405.0000,-13.9871,-11.1122,-14.3498,-7.7042,-9.1432,-13.9063,-7.0090,-17.7371,0.6859,-3.6481,-7.8152,-9.9053,4.3829,-0.0670,-17.5588,-19.1414,-16.0902,-18.4179,-17.4273,-13.5713,-14.3209,-8.0821,-10.9331,-1.6117,-3.6941
406.0000,-13.1257,-10.5979,-14.3131,-7.6390,-8.9579,-13.4413,-6.8903,-16.9145,1.2390,-2.5996,-8.1421,-9.8228,5.5984,2.8601,-17.4024,-18.8223,-15.5861,-18.3711,-17.2662,-13.1747,-13.7014,-8.1516,-10.0091,-2.0433,-2.9687
407.0000,-11.7494,-10.1931,-14.1050,-7.2397,-8.6050,-12.6657,-6.6178,-15.7929,1.9399,-1.1414,-8.0686,-9.3320,6.9961,6.4609,-16.9451,-18.2752,-14.8181,-18.0882,-16.7755,-12.5652,-12.8122,-7.9769,-8.6406,-2.4838,-2.2078
408.0000,-10.0549,-9.9925,-13.7529,-6.2964,-8.0946,-11.5675,-6.2219,-14.3721,2.7453,0.6997,-7.5209,-8.4410,8.4624,10.6108,-16.1900,-17.4980,-13.8023,-17.5682,-15.9246,-11.7546,-11.6556,-7.5567,-6.9599,-2.9022,-1.3601
409.0000,-8.3125,-10.1346,-13.3319,-4.7323,-7.4733,-10.2156,-5.7706,-12.7217,3.5809,2.7740,-6.5243,-7.2445,9.8194,14.9879,-15.2118,-16.5443,-12.6142,-16.8730,-14.7658,-10.8078,-10.2931,-6.9379,-5.2126,-3.2724,-0.4312
410.0000,-6.8155,-10.7706,-12.9527,-2.6347,-6.8214,-8.7579,-5.3626,-10.9918,4.3448,4.8198,-5.2060,-5.9169,10.8529,19.1187,-14.1468,-15.5227,-11.3854,-16.1205,-13.4335,-9.8396,-8.8478,-6.2119,-3.7104,-3.5852,0.4846
411.0000,-5.8182,-12.0079,-12.7327,-0.2417,-6.2378,-7.3923,-5.1094,-9.3972,4.9200,6.5115,-3.7689,-4.6800,11.3566,22.4696,-13.1611,-14.5779,-10.2829,-15.4573,-12.1182,-8.9943,-7.4874,-5.4982,-2.7525,-3.8536,1.2089
412.0000,-5.4793,-13.8491,-12.7597,2.1122,-5.8171,-6.3196,-5.1097,-8.1780,5.1956,7.5329,-2.4435,-3.7519,11.1798,24.5608,-12.4085,-13.8553,-9.4733,-15.0186,-11.0202,-8.4129,-6.3895,-4.9191,-2.5377,-4.1109,1.5207
413.0000,-5.8253,-16.1498,-13.0597,4.0752,-5.6246,-5.6904,-5.4225,-7.5437,5.0885,7.6576,-1.4329,-3.2911,10.2642,25.0702,-11.9892,-13.4633,-9.0832,-14.8898,-10.2982,-8.1971,-5.6998,-4.5730,-3.0962,-4.3992,1.2256
414.0000,-6.7441,-18.6173,-13.5807,5.3592,-5.6780,-5.5640,-6.0492,-7.6182,4.5603,6.8107,-0.8651,-3.3537,8.6595,23.9014,-11.9237,-13.4409,-9.1665,-15.0799,-10.0271,-8.3810,-5.4934,-4.5109,-4.2661,-4.7528,0.2306
415.0000,-8.0108,-20.8597,-14.2014,5.8009,-5.9417,-5.8910,-6.9288,-8.4001,3.6240,5.0943,-0.7679,-3.8750,6.5103,21.1944,-12.1497,-13.7460,-9.6898,-15.5181,-10.1797,-8.9187,-5.7535,-4.7246,-5.7243,-5.1815,-1.4007
416.0000,-9.3393,-22.4768,-14.7632,5.3856,-6.3354,-6.5265,-7.9484,-9.7529,2.3383,2.7671,-1.0725,-4.6841,4.0199,17.2820,-12.5444,-14.2650,-10.5395,-16.0748,-10.6380,-9.6932,-6.3733,-5.1496,-7.0677,-5.6595,-3.4345
417.0000,-10.4452,-23.1678,-15.1172,4.2299,-6.7559,-7.2711,-8.9684,-11.4299,0.7915,0.1829,-1.6433,-5.5480,1.3999,12.6032,-12.9648,-14.8447,-11.5507,-16.6006,-11.2303,-10.5453,-7.1818,-5.6808,-7.9220,-6.1239,-5.5033
418.0000,-11.1039,-22.8237,-15.1729,2.5323,-7.1049,-7.9264,-9.8537,-13.1280,-0.9200,-2.2961,-2.3252,-6.2323,-1.1774,7.6019,-13.2926,-15.3354,-12.5491,-16.9719,-11.7842,-11.3126,-7.9876,-6.1990,-8.0455,-6.4854,-7.1865
419.0000,-11.1899,-21.5703,-14.9308,0.5065,-7.3147,-8.3492,-10.5026,-14.5577,-2.7111,-4.3846,-2.9910,-6.5625,-3.6105,2.6391,-13.4712,-15.6319,-13.3936,-17.1282,-12.1769,-11.8698,-8.6278,-6.5992,-7.3962,-6.6474,-8.1144
420.0000,-10.6885,-19.7450,-14.4887,-1.6768,-7.3641,-8.4883,-10.8663,-15.5098,-4.5182,-5.9371,-3.5760,-6.4682,-5.8733,-2.0587,-13.5199,-15.7012,-14.0077,-17.0884,-12.3686,-12.1569,-9.0070,-6.8156,-6.1416,-6.5299,-8.0663
421.0000,-9.6796,-17.8093,-14.0164,-3.9253,-7.2791,-8.3918,-10.9521,-15.9005,-6.3001,-6.9679,-4.0890,-5.9974,-7.9932,-6.4053,-13.5233,-15.5867,-14.3905,-16.9412,-12.4078,-12.1878,-9.1166,-6.8342,-4.6067,-6.0896,-7.0347
422.0000,-8.3022,-16.2191,-13.7066,-6.2262,-7.1188,-8.1848,-10.8118,-15.7845,-8.0265,-7.6270,-4.5975,-5.2989,-10.0105,-10.4191,-13.5977,-15.3881,-14.6046,-16.8116,-12.4074,-12.0376,-9.0281,-6.6918,-3.1763,-5.3328,-5.2351
423.0000,-6.7117,-15.2929,-13.7136,-8.6169,-6.9514,-8.0247,-10.5187,-15.3312,-9.6627,-8.1401,-5.1944,-4.5785,-11.9317,-14.1647,-13.8464,-15.2250,-14.7464,-16.8155,-12.5000,-11.8121,-8.8635,-6.4621,-2.1823,-4.3157,-3.0583
424.0000,-5.0430,-15.1172,-14.1022,-11.1366,-6.8281,-8.0484,-10.1421,-14.7738,-11.1554,-8.7321,-5.9568,-4.0433,-13.6964,-17.6926,-14.3182,-15.1938,-14.9076,-17.0155,-12.7877,-11.6108,-8.7524,-6.2317,-1.8116,-3.1332,-0.9773
425.0000,-3.3902,-15.5203,-14.8194,-13.7796,-6.7638,-8.3282,-9.7265,-14.3455,-12.4267,-9.5584,-6.9127,-3.8489,-15.1658,-20.9994,-14.9832,-15.3335,-15.1413,-17.3942,-13.3026,-11.4940,-8.7898,-6.0754,-2.0606,-1.8999,0.5652
426.0000,-1.8048,-16.1240,-15.7014,-16.4660,-6.7301,-8.8500,-9.2824,-14.2200,-13.3803,-10.6637,-8.0255,-4.0667,-16.1425,-24.0186,-15.7341,-15.6110,-15.4431,-17.8524,-13.9908,-11.4649,-9.0066,-6.0346,-2.7517,-0.7287,1.2592
427.0000,-0.3097,-16.4566,-16.5137,-19.0420,-6.6639,-9.5186,-8.7911,-14.4730,-13.9188,-11.9778,-9.2003,-4.6747,-16.4132,-26.6407,-16.4124,-15.9290,-15.7518,-18.2344,-14.7261,-11.4706,-9.3614,-6.1076,-3.6021,0.2870,0.9926
428.0000,1.0804,-16.0939,-17.0127,-21.3105,-6.4871,-10.1878,-8.2199,-15.0720,-13.9675,-13.3472,-10.3097,-5.5739,-15.8051,-28.7518,-16.8524,-16.1543,-15.9696,-18.3714,-15.3464,-11.4219,-9.7550,-6.2506,-4.3215,1.0832,-0.1365
429.0000,2.3424,-14.7840,-17.0115,-23.0797,-6.1326,-10.7039,-7.5426,-15.8946,-13.4966,-14.5873,-11.2288,-6.6207,-14.2381,-30.2720,-16.9269,-16.1575,-15.9933,-18.1303,-15.7022,-11.2243,-10.0618,-6.3912,-4.7052,1.6267,-1.8592
430.0000,3.4402,-12.5177,-16.4299,-24.2162,-5.5660,-10.9486,-6.7568,-16.7662,-12.5344,-15.5370,-11.8670,-7.6633,-11.7575,-31.1771,-16.5831,-15.8492,-15.7462,-17.4515,-15.7004,-10.8087,-10.1671,-6.4479,-4.6917,1.9091,-3.8127
431.0000,4.3340,-9.5244,-15.3149,-24.6819,-4.7979,-10.8671,-5.8916,-17.5062,-11.1664,-16.0983,-12.1871,-8.5709,-8.5373,-31.4963,-15.8550,-15.2036,-15.2006,-16.3656,-15.3286,-10.1534,-9.9975,-6.3514,-4.3674,1.9369,-5.6323
432.0000,5.0010,-6.1979,-13.8259,-24.5431,-3.8820,-10.4749,-5.0037,-17.9672,-9.5197,-16.2477,-12.2048,-9.2492,-4.8530,-31.2858,-14.8513,-14.2616,-14.3832,-14.9825,-14.6544,-9.2892,-9.5375,-6.0614,-3.9193,1.7237,-7.0315
433.0000,5.4576,-2.9795,-12.1911,-23.9499,-2.9004,-9.8432,-4.1625,-18.0602,-7.7368,-16.0206,-11.9729,-9.6399,-1.0301,-30.5912,-13.7219,-13.1133,-13.3642,-13.4599,-13.7985,-8.2886,-8.8262,-5.5761,-3.5542,1.2852,-7.8524
434.0000,5.7740,-0.2350,-10.6494,-23.0903,-1.9416,-9.0694,-3.4297,-17.7605,-5.9470,-15.4772,-11.5546,-9.7119,2.6163,-29.4149,-12.6163,-11.8692,-12.2334,-11.9589,-12.8941,-7.2413,-7.9391,-4.9321,-3.4149,0.6405,-8.0779
435.0000,6.0722,1.8328,-9.3952,-22.1379,-1.0787,-8.2447,-2.8410,-17.0980,-4.2428,-14.6656,-10.9991,-9.4496,5.8370,-27.7035,-11.6453,-10.6275,-11.0730,-10.6050,-12.0452,-6.2277,-6.9610,-4.1966,-3.5233,-0.1837,-7.8071
436.0000,6.5057,3.2125,-8.5433,-21.2068,-0.3540,-7.4301,-2.3953,-16.1389,-2.6693,-13.5978,-10.3277,-8.8476,8.4843,-25.3635,-10.8600,-9.4512,-9.9369,-9.4624,-11.2987,-5.2978,-5.9623,-3.4551,-3.7711,-1.1483,-7.2089
437.0000,7.2244,4.0493,-8.1211,-20.3310,0.2247,-6.6475,-2.0567,-14.9658,-1.2279,-12.2471,-9.5348,-7.9146,10.5216,-22.3019,-10.2510,-8.3595,-8.8422,-8.5325,-10.6388,-4.4624,-4.9836,-2.7967,-3.9605,-2.1996,-6.4679
438.0000,8.3340,4.5654,-8.0873,-19.4712,0.6768,-5.8881,-1.7669,-13.6622,0.1073,-10.5688,-8.6031,-6.6832,12.0064,-18.4781,-9.7679,-7.3371,-7.7752,-7.7711,-10.0041,-3.6990,-4.0350,-2.3018,-3.8797,-3.2723,-5.7397
439.0000,9.8635,4.9665,-8.3668,-18.5470,1.0343,-5.1302,-1.4645,-12.3049,1.3680,-8.5347,-7.5257,-5.2214,13.0548,-13.9505,-9.3492,-6.3537,-6.7087,-7.1198,-9.3202,-2.9693,-3.1075,-2.0311,-3.3855,-4.2985,-5.1239
440.0000,11.7491,5.3718,-8.8878,-17.4802,1.3256,-4.3601,-1.1053,-10.9615,2.5712,-6.1662,-6.3247,-3.6357,13.7985,-8.8981,-8.9506,-5.3871,-5.6221,-6.5357,-8.5343,-2.2404,-2.1895,-2.0195,-2.4628,-5.2184,-4.6569
441.0000,13.8423,5.7888,-9.6046,-16.2342,1.5649,-3.5858,-0.6749,-9.6900,3.7088,-3.5533,-5.0585,-2.0609,14.3462,-3.6101,-8.5619,-4.4395,-4.5179,-6.0103,-7.6399,-1.5014,-1.2826,-2.2718,-1.2377,-5.9917,-4.3206
442.0000,15.9395,6.1422,-10.5003,-14.8348,1.7499,-2.8374,-0.1923,-8.5377,4.7482,-0.8487,-3.8123,-0.6356,14.7594,1.5585,-8.2062,-3.5409,-3.4262,-5.5705,-6.6813,-0.7704,-0.4081,-2.7612,0.0596,-6.6034,-4.0582
443.0000,17.8252,6.3391,-11.5683,-13.3671,1.8689,-2.1552,0.2989,-7.5366,5.6451,1.7618,-2.6764,0.5309,15.0459,6.2501,-7.9223,-2.7387,-2.3984,-5.2607,-5.7376,-0.0881,0.3972,-3.4313,1.1722,-7.0644,-3.7919
444.0000,19.3163,6.3451,-12.7828,-11.9493,1.9128,-1.5711,0.7455,-6.6971,6.3602,4.1037,-1.7175,1.3893,15.1699,10.1693,-7.7395,-2.0785,-1.4900,-5.1159,-4.8923,0.4980,1.0940,-4.2005,1.9046,-7.4040,-3.4355
445.0000,20.2959,6.2365,-14.0709,-10.6946,1.8870,-1.0910,1.1027,-6.0035,6.8757,6.0585,-0.9560,1.9685,15.0743,13.1307,-7.6541,-1.5832,-0.7417,-5.1348,-4.2004,0.9531,1.6570,-4.9710,2.1920,-7.6589,-2.9052
446.0000,20.7276,6.2073,-15.3017,-9.6767,1.8180,-0.6879,1.3473,-5.4154,7.2030,7.5912,-0.3583,2.3705,14.7052,15.0750,-7.6183,-1.2404,-0.1658,-5.2666,-3.6661,1.2696,2.0872,-5.6416,2.1252,-7.8604,-2.1281
447.0000,20.6477,6.5245,-16.2988,-8.9098,1.7499,-0.3085,1.4824,-4.8767,7.3798,8.7530,0.1522,2.7414,14.0337,16.0533,-7.5477,-1.0031,0.2579,-5.4151,-3.2395,1.4716,2.4138,-6.1235,1.9208,-8.0250,-1.0536
448.0000,20.1417,7.4461,-16.8768,-8.3512,1.7326,0.1069,1.5338,-4.3316,7.4566,9.6565,0.6669,3.2263,13.0698,16.1879,-7.3455,-0.8044,0.5728,-5.4636,-2.8349,1.6073,2.6855,-6.3560,1.8474,-8.1502,0.3333
449.0000,19.3122,9.1292,-16.8885,-7.9243,1.8060,0.5993,1.5385,-3.7437,7.4793,10.4320,1.2566,3.9194,11.8649,15.6257,-6.9341,-0.5808,0.8285,-5.3090,-2.3633,1.7321,2.9521,-6.3181,2.1320,-8.2169,1.9983
450.0000,18.2517,11.5633,-16.2706,-7.5505,1.9852,1.1701,1.5320,-3.1104,7.4735,11.1813,1.9408,4.8273,10.5060,14.5027,-6.2849,-0.2962,1.0618,-4.8960,-1.7679,1.8888,3.2455,-6.0319,2.8802,-8.1949,3.8497
451.0000,17.0275,14.5517,-15.0672,-7.1784,2.2544,1.7737,1.5396,-2.4674,7.4376,11.9455,2.6747,5.8587,9.1037,12.9311,-5.4319,0.0443,1.2833,-4.2366,-1.0481,2.0931,3.5663,-5.5564,4.0384,-8.0511,5.7424
452.0000,15.6827,17.7511,-13.4241,-6.7962,2.5728,2.3290,1.5737,-1.8794,7.3484,12.6966,3.3598,6.8458,7.7770,11.0119,-4.4642,0.3955,1.4765,-3.4084,-0.2626,2.3303,3.8832,-4.9702,5.4118,-7.7544,7.4966
453.0000,14.2509,20.7563,-11.5496,-6.4224,2.8904,2.7472,1.6393,-1.4182,7.1766,13.3584,3.8764,7.5937,6.6375,8.8645,-3.4975,0.6900,1.6085,-2.5290,0.4910,2.5652,4.1462,-4.3480,6.7347,-7.2787,8.9319
454.0000,12.7767,23.2047,-9.6554,-6.0781,3.1705,2.9673,1.7445,-1.1347,6.9078,13.8459,4.1288,7.9432,5.7764,6.6566,-2.6335,0.8666,1.6513,-1.7161,1.1141,2.7612,4.3098,-3.7367,7.7674,-6.6018,9.9081
455.0000,11.3319,24.8643,-7.8938,-5.7525,3.4094,2.9878,1.9092,-1.0336,6.5600,14.1099,4.0881,7.8279,5.2527,4.6181,-1.9206,0.8999,1.6028,-1.0449,1.5488,2.9028,4.3584,-3.1376,8.3881,-5.7028,10.3622
456.0000,10.0197,25.6804,-6.3124,-5.3768,3.6469,2.8811,2.1701,-1.0604,6.1913,14.1691,3.8175,7.3069,5.0852,3.0259,-1.3293,0.8198,1.5017,-0.5180,1.8090,3.0110,4.3235,-2.5027,8.6461,-4.5627,10.3303
457.0000,8.9623,25.7647,-4.8424,-4.8215,3.9604,2.7842,2.5748,-1.1077,5.8922,14.1157,3.4680,6.5603,5.2477,2.1588,-0.7540,0.7121,1.4263,-0.0597,1.9875,3.1456,4.2854,-1.7460,8.7564,-3.1681,9.9441
458.0000,8.2753,25.3355,-3.3267,-3.9223,4.4440,2.8659,3.1680,-1.0398,5.7643,14.0919,3.2457,5.8470,5.6697,2.2331,-0.0411,0.6987,1.4785,0.4620,2.2343,3.3911,4.3562,-0.7693,9.0338,-1.5204,9.4017
459.0000,8.0358,24.6318,-1.5809,-2.5306,5.1773,3.2778,3.9719,-0.7308,5.8907,14.2433,3.3548,5.4356,6.2421,3.3382,0.9613,0.9017,1.7540,1.1915,2.7114,3.8301,4.6477,0.5030,9.7871,0.3517,8.9169
460.0000,8.2547,23.8305,0.5315,-0.5754,6.1920,4.1045,4.9682,-0.1049,6.3072,14.6650,3.9360,5.5274,6.8299,5.3940,2.3487,1.4021,2.3089,2.2324,3.5372,4.5108,5.2339,2.0911,11.2053,2.3819,8.6627
461.0000,8.8634,22.9960,3.0315,1.8847,7.4486,5.3274,6.0873,0.8338,6.9837,15.3597,5.0155,6.1950,7.2905,8.1475,4.1156,2.2056,3.1331,3.6013,4.7372,5.4201,6.1184,3.9377,13.2746,4.4607,8.7224
462.0000,9.7203,22.0775,5.7878,4.6388,8.8301,6.8145,7.2114,1.9912,7.8226,16.2230,6.4836,7.3544,7.4951,11.2135,6.1361,3.2284,4.1406,5.2047,6.2191,6.4727,7.2200,5.9039,15.7520,6.4410,9.0660
463.0000,10.6370,20.9498,8.5240,7.3419,10.1567,8.3415,8.1908,3.1979,8.6756,17.0624,8.1086,8.7795,7.3507,14.1530,8.1779,4.3061,5.1793,6.8467,7.7800,7.5186,8.3804,7.7873,18.2087,8.1553,9.5576
464.0000,11.4186,19.4808,10.8694,9.5736,11.2191,9.6373,8.8720,4.2455,9.3757,17.6468,9.5850,10.1559,6.8170,16.5671,9.9459,5.2272,6.0617,8.2667,9.1466,8.3709,9.3945,9.3564,20.1299,9.4412,9.9923
465.0000,11.9059,17.5975,12.4403,10.9253,11.8220,10.4451,9.1288,4.9343,9.7740,17.7698,10.6025,11.1579,5.9146,18.1820,11.1456,5.7799,6.6061,9.1975,10.0369,8.8461,10.0555,10.3964,21.0445,10.1710,10.1541
466.0000,12.0093,15.3259,12.9312,11.0920,11.8254,10.5786,8.8891,5.1189,9.7732,17.3084,10.9181,11.5279,4.7230,18.9013,11.5481,5.8004,6.6776,9.4270,10.2269,8.8045,10.2017,10.7517,20.6461,10.2775,9.8745
467.0000,11.7246,12.7905,12.1877,9.9442,11.1736,9.9613,8.1498,4.7404,9.3464,16.2571,10.4100,11.1351,3.3666,18.8106,11.0402,5.2084,6.2177,8.8463,9.6024,8.1813,9.7529,10.3560,18.8699,9.7684,9.0780
468.0000,11.1258,10.1733,10.2440,7.5592,9.9044,8.6373,6.9751,3.8341,8.5378,14.7274,9.1017,9.9993,1.9926,18.1340,9.6453,4.0213,5.2541,7.4719,8.1829,6.9977,8.7250,9.2427,15.9058,8.7246,7.7982
469.0000,10.3388,7.6515,7.3132,4.2029,8.1353,6.7516,5.4791,2.5137,7.4456,12.9133,7.1482,8.2739,0.7445,17.1576,7.5115,2.3420,3.8877,5.4357,6.1102,5.3519,7.2205,7.5316,12.1441,7.2828,6.1622
470.0000,9.5011,5.3359,3.7356,0.2674,6.0328,4.5090,3.7979,0.9365,6.1930,11.0328,4.7923,6.1961,-0.2625,16.1412,4.8716,0.3282,2.2631,2.9486,3.6075,3.3902,5.3981,5.3992,8.0730,5.6068,4.3492
471.0000,8.7221,3.2367,-0.0990,-3.8178,3.7739,2.1222,2.0593,-0.7393,4.8966,9.2667,2.3027,4.0199,-0.9595,15.2458,1.9874,-1.8499,0.5304,0.2471,0.9221,1.2711,3.4305,3.0379,4.1577,3.8533,2.5363
472.0000,8.0509,1.2682,-3.8344,-7.6758,1.5099,-0.2339,0.3585,-2.3916,3.6413,7.7124,-0.0863,1.9526,-1.3314,14.4966,-0.9065,-4.0484,-1.1894,-2.4578,-1.7318,-0.8700,1.4648,0.6191,0.7371,2.1436,0.8493
473.0000,7.4641,-0.7058,-7.2121,-11.0507,-0.6572,-2.4511,-1.2541,-3.9560,2.4696,6.3681,-2.2201,0.1117,-1.4123,13.7899,-3.6430,-6.1748,-2.8248,-5.0186,-4.2126,-2.9433,-0.4056,-1.7344,-2.0367,0.5459,-0.6661
474.0000,6.8738,-2.8045,-10.1033,-13.8351,-2.6804,-4.4930,-2.7700,-5.4262,1.3853,5.1512,-4.0401,-1.4864,-1.2709,12.9406,-6.1390,-8.1933,-4.3565,-7.3654,-6.4651,-4.9100,-2.1473,-3.9565,-4.2000,-0.9257,-2.0435
475.0000,6.1546,-5.0624,-12.5027,-16.0558,-4.5571,-6.3780,-4.2071,-6.8358,0.3709,3.9435,-5.5733,-2.9073,-0.9889,11.7530,-8.3869,-10.1114,-5.8022,-9.4950,-8.5061,-6.7698,-3.7744,-6.0306,-5.9284,-2.2974,-3.3674
476.0000,5.1817,-7.3891,-14.4921,-17.8243,-6.3061,-8.1482,-5.5875,-8.2269,-0.5899,2.6465,-6.8988,-4.2567,-0.6382,10.0938,-10.4255,-11.9524,-7.1899,-11.4419,-10.3893,-8.5375,-5.3208,-7.9675,-7.4545,-3.6130,-4.7270
477.0000,3.8711,-9.5703,-16.1882,-19.2720,-7.9422,-9.8355,-6.9158,-9.6196,-1.4919,1.2292,-8.1054,-5.6309,-0.2613,7.9447,-12.3039,-13.7270,-8.5306,-13.2432,-12.1644,-10.2168,-6.8091,-9.7807,-8.9796,-4.9075,-6.1673
478.0000,2.2100,-11.3127,-17.6918,-20.4912,-9.4561,-11.4358,-8.1654,-10.9888,-2.2982,-0.2492,-9.2532,-7.0761,0.1395,5.4204,-14.0490,-15.4105,-9.7988,-14.9080,-13.8424,-11.7805,-8.2256,-11.4652,-10.6076,-6.1873,-7.6543
479.0000,0.2702,-12.3209,-19.0544,-21.4994,-10.8064,-12.8995,-9.2759,-12.2594,-2.9425,-1.6483,-10.3510,-8.5680,0.6018,2.7492,-15.6467,-16.9366,-10.9271,-16.4033,-15.3801,-13.1649,-9.5111,-12.9866,-12.3166,-7.4208,-9.0669
480.0000,-1.7976,-12.3806,-20.2698,-22.2365,-11.9250,-14.1386,-10.1642,-13.3179,-3.3445,-2.7838,-11.3531,-10.0154,1.1919,0.2214,-17.0412,-18.2063,-11.8185,-17.6581,-16.6857,-14.2786,-10.5689,-14.2854,-13.9731,-8.5432,-10.2182
481.0000,-3.7895,-11.4256,-21.2876,-22.5922,-12.7343,-15.0492,-10.7437,-14.0400,-3.4325,-3.4817,-12.1761,-11.2865,1.9836,-1.8777,-18.1516,-19.1111,-12.3704,-18.5832,-17.6450,-15.0238,-11.2890,-15.2909,-15.3802,-9.4718,-10.9010
482.0000,-5.4866,-9.5658,-22.0421,-22.4521,-13.1689,-15.5395,-10.9472,-14.3226,-3.1662,-3.6308,-12.7268,-12.2454,3.0327,-3.3316,-18.8963,-19.5618,-12.5032,-19.1005,-18.1554,-15.3228,-11.5790,-15.9424,-16.3410,-10.1274,-10.9445
483.0000,-6.6963,-7.0717,-22.4831,-21.7447,-13.1954,-15.5563,-10.7468,-14.1140,-2.5537,-3.2181,-12.9324,-12.7904,4.3522,-4.0377,-19.2198,-19.5134,-12.1858,-19.1691,-18.1597,-15.1413,-11.3935,-16.2082,-16.7161,-10.4550,-10.2657
484.0000,-7.2894,-4.3185,-22.5966,-20.4751,-12.8239,-15.1008,-10.1644,-13.4316,-1.6555,-2.3349,-12.7628,-12.8787,5.8947,-4.0233,-19.1103,-18.9801,-11.4485,-18.8020,-17.6657,-14.5010,-10.7514,-16.0966,-16.4594,-10.4383,-8.8999
485.0000,-7.2219,-1.7079,-22.4092,-18.7331,-12.1073,-14.2308,-9.2707,-12.3633,-0.5761,-1.1541,-12.2403,-12.5343,7.5474,-3.4309,-18.6050,-18.0346,-10.3808,-18.0658,-16.7480,-13.4783,-9.7374,-15.6560,-15.6219,-10.1027,-7.0006
486.0000,-6.5384,0.4118,-21.9753,-16.6761,-11.1302,-13.0493,-8.1725,-11.0519,0.5560,0.1153,-11.4329,-11.8364,9.1428,-2.4790,-17.7812,-16.7924,-9.1140,-17.0660,-15.5313,-12.1891,-8.4856,-14.9624,-14.3282,-9.5081,-4.8085
487.0000,-5.3578,1.8087,-21.3542,-14.4920,-9.9886,-11.6822,-6.9917,-9.6662,1.6142,1.2807,-10.4370,-10.8933,10.4835,-1.4105,-16.7377,-15.3869,-7.7936,-15.9208,-14.1604,-10.7644,-7.1500,-14.0999,-12.7335,-8.7316,-2.5968
488.0000,-3.8430,2.4006,-20.5856,-12.3559,-8.7682,-10.2521,-5.8406,-8.3660,2.4994,2.2119,-9.3520,-9.8111,11.3789,-0.4418,-15.5714,-13.9404,-6.5488,-14.7329,-12.7667,-9.3228,-5.8705,-13.1382,-10.9783,-7.8480,-0.6068
489.0000,-2.1655,2.2567,-19.6724,-10.3916,-7.5261,-8.8544,-4.7995,-7.2694,3.1586,2.8655,-8.2574,-8.6657,11.6844,0.2760,-14.3568,-12.5398,-5.4669,-13.5654,-11.4400,-7.9478,-4.7421,-12.1152,-9.1547,-6.9095,1.0086
490.0000,-0.4723,1.5728,-18.5793,-8.6509,-6.2807,-7.5402,-3.9024,-6.4286,3.5932,3.2846,-7.1959,-7.4870,11.3354,0.6739,-13.1325,-11.2227,-4.5787,-12.4313,-10.2140,-6.6745,-3.7966,-11.0282,-7.2931,-5.9331,2.2200
491.0000,1.1346,0.6288,-17.2449,-7.1125,-5.0127,-6.3117,-3.1320,-5.8217,3.8546,3.5739,-6.1669,-6.2574,10.3662,0.7610,-11.8992,-9.9763,-3.8581,-11.2952,-9.0664,-5.4895,-2.9992,-9.8370,-5.3734,-4.8977,3.1242
492.0000,2.6027,-0.2610,-15.6055,-5.6991,-3.6751,-5.1272,-2.4276,-5.3599,4.0289,3.8609,-5.1326,-4.9270,8.9081,0.6004,-10.6271,-8.7489,-3.2350,-10.0893,-7.9345,-4.3420,-2.2633,-8.4782,-3.3540,-3.7505,3.9155
493.0000,3.9166,-0.7980,-13.6217,-4.3061,-2.2120,-3.9184,-1.7022,-4.9109,4.2145,4.2535,-4.0323,-3.4386,7.1662,0.2739,-9.2703,-7.4709,-2.6180,-8.7374,-6.7398,-3.1640,-1.4770,-6.8863,-1.2095,-2.4241,4.8294
494.0000,5.0727,-0.7454,-11.2996,-2.8321,-0.5792,-2.6124,-0.8671,-4.3329,4.4978,4.8073,-2.8032,-1.7566,5.3768,-0.1538,-7.7857,-6.0802,-1.9217,-7.1807,-5.4144,-1.8942,-0.5369,-5.0183,1.0358,-0.8590,6.0760
495.0000,6.0514,0.0325,-8.7012,-1.2042,1.2359,-1.1570,0.1426,-3.5118,4.9314,5.5099,-1.4024,0.1075,3.7584,-0.6610,-6.1501,-4.5448,-1.0913,-5.3996,-3.9247,-0.4996,0.6203,-2.8737,3.2891,0.9726,7.7750
496.0000,6.7979,1.5422,-5.9404,0.6078,3.2011,0.4586,1.3457,-2.3945,5.5205,6.2852,0.1750,2.0812,2.4649,-1.2774,-4.3726,-2.8792,-0.1201,-3.4271,-2.2844,1.0093,1.9950,-0.5082,5.3916,3.0467,9.9122
497.0000,7.2175,3.6479,-3.1686,2.5869,5.2352,2.1906,2.7024,-1.0102,6.2190,7.0144,1.8851,4.0321,1.5558,-2.0705,-2.5013,-1.1493,0.9441,-1.3498,-0.5569,2.5732,3.5160,1.9644,7.1426,5.2762,12.3259
498.0000,7.1936,6.0809,-0.5520,4.6742,7.2146,3.9399,4.1139,0.5274,6.9376,7.5676,3.6348,5.7846,0.9906,-3.1118,-0.6205,0.5339,2.0057,0.7020,1.1539,4.0900,5.0492,4.3821,8.3406,7.5126,14.7288
499.0000,6.6224,8.4766,1.7503,6.7782,8.9897,5.5651,5.4363,2.0369,7.5615,7.8374,5.2929,7.1511,0.6499,-4.4314,1.1580,2.0326,2.9385,2.5738,2.7212,5.4304,6.4215,6.5554,8.8311,9.5613,16.7622
500.0000,5.4577,10.4379,3.6053,8.7861,10.4090,6.9070,6.5068,3.3045,7.9744,7.7666,6.7107,7.9692,0.3777,-5.9754,2.7107,3.2074,3.6118,4.1115,4.0177,6.4616,7.4550,8.2955,8.5502,11.2110,18.0692
501.0000,3.7515,11.6175,4.9170,10.5748,11.3465,7.8213,7.1767,4.1303,8.0850,7.3636,7.7491,8.1398,0.0339,-7.5790,3.9206,3.9454,3.9183,5.1868,4.9390,7.0730,8.0049,9.4446,7.5519,12.2713,18.3733
502.0000,1.6766,11.8011,5.6311,12.0208,11.7268,8.2112,7.3460,4.3745,7.8484,6.7043,8.3066,7.6534,-0.4582,-8.9712,4.6965,4.1844,3.7983,5.7195,5.4212,7.1997,7.9921,9.9045,6.0122,12.6117,17.5424
503.0000,-0.4801,10.9699,5.7333,13.0101,11.5426,8.0523,6.9886,3.9932,7.2795,5.9186,8.3412,6.6007,-1.0838,-9.8152,4.9875,3.9285,3.2560,5.6904,5.4528,6.8391,7.4222,9.6562,4.2053,12.1950,15.6245
504.0000,-2.3544,9.3215,5.2444,13.4476,10.8594,7.4028,6.1646,3.0519,6.4532,5.1649,7.8809,5.1610,-1.7350,-9.7840,4.7915,3.2495,2.3613,5.1437,5.0749,6.0545,6.3870,8.7663,2.4557,11.0936,12.8450
505.0000,-3.5696,7.2360,4.2154,13.2661,9.8066,6.3941,5.0129,1.7138,5.4906,4.5981,7.0186,3.5697,-2.2387,-8.6529,4.1536,2.2739,1.2378,4.1783,4.3720,4.9659,5.0468,7.3788,1.0755,9.4860,9.5665
506.0000,-3.8116,5.1910,2.7211,12.4329,8.5540,5.2032,3.7260,0.2023,4.5351,4.3350,5.8918,2.0717,-2.4058,-6.3886,3.1560,1.1575,0.0381,2.9280,3.4532,3.7281,3.5960,5.6921,0.2998,7.6291,6.2175
507.0000,-2.8984,3.6431,0.8544,10.9526,7.2803,4.0129,2.5114,-1.2521,3.7218,4.4260,4.6505,0.8698,-2.0880,-3.2051,1.8999,0.0530,-1.0886,1.5360,2.4293,2.5006,2.2215,3.9257,0.2352,5.8135,3.2076
508.0000,-0.8240,2.9084,-1.2804,8.8654,6.1380,2.9696,1.5486,-2.4674,3.1480,4.8379,3.4226,0.0822,-1.2252,0.4351,0.4849,-0.9224,-2.0279,0.1285,1.3893,1.4162,1.0628,2.2819,0.8347,4.3076,0.8478
509.0000,2.2339,3.0755,-3.5751,6.2412,5.2262,2.1500,0.9527,-3.3542,2.8528,5.4544,2.2855,-0.2812,0.1287,3.8856,-1.0089,-1.7090,-2.7241,-1.2059,0.3838,0.5558,0.1837,0.9128,1.9071,3.3061,-0.7058
510.0000,5.9483,3.9818,-5.9252,3.1723,4.5751,1.5472,0.7530,-3.9324,2.8107,6.0948,1.2532,-0.3144,1.8112,6.4410,-2.5314,-2.3124,-3.1888,-2.4265,-0.5806,-0.0639,-0.4354,-0.1025,3.1613,2.8934,-1.4715
511.0000,9.9087,5.2612,-8.2366,-0.2328,4.1484,1.0805,0.8930,-4.3187,2.9409,6.5515,0.2825,-0.1856,3.5851,7.4955,-4.0618,-2.7931,-3.4924,-3.5370,-1.5347,-0.4864,-0.8835,-0.7622,4.2747,3.0323,-1.6212
512.0000,13.7035,6.4540,-10.4303,-3.8514,3.8629,0.6261,1.2506,-4.6853,3.1307,6.6365,-0.7015,-0.0861,5.1926,6.6978,-5.5981,-3.2411,-3.7399,-4.5713,-2.5274,-0.7957,-1.2866,-1.1303,4.9724,3.5809,-1.4259
513.0000,16.9972,7.1476,-12.4428,-7.5457,3.6178,0.0610,1.6739,-5.2028,3.2661,6.2289,-1.7700,-0.1752,6.4125,4.0602,-7.1384,-3.7426,-4.0374,-5.5701,-3.6007,-1.0866,-1.7658,-1.3098,5.0947,4.3327,-1.1815
514.0000,19.5833,7.1044,-14.2251,-11.1594,3.3279,-0.6939,2.0217,-5.9842,3.2608,5.3097,-2.9547,-0.5338,7.1068,-0.0146,-8.6634,-4.3488,-4.4601,-6.5587,-4.7659,-1.4342,-2.3981,-1.4093,4.6369,5.0705,-1.1355
515.0000,21.4004,6.3375,-15.7391,-14.5183,2.9487,-1.6447,2.1967,-7.0472,3.0761,3.9727,-4.2251,-1.1427,7.2422,-4.8024,-10.1248,-5.0565,-5.0299,-7.5310,-5.9894,-1.8703,-3.1914,-1.5125,3.7481,5.6175,-1.4334
516.0000,22.5107,5.1069,-16.9565,-17.4385,2.4869,-2.7195,2.1631,-8.3077,2.7243,2.4070,-5.4878,-1.8928,6.8837,-9.4135,-11.4460,-5.8074,-5.7103,-8.4469,-7.1930,-2.3770,-4.0824,-1.6601,2.6885,5.8737,-2.0969
517.0000,23.0487,3.8379,-17.8604,-19.7456,1.9919,-3.7896,1.9430,-9.6066,2.2561,0.8508,-6.6092,-2.6236,6.1627,-13.0003,-12.5375,-6.5071,-6.4219,-9.2434,-8.2715,-2.8961,-4.9578,-1.8464,1.7554,5.8267,-3.0398
518.0000,23.1577,2.9822,-18.4500,-21.3034,1.5322,-4.7116,1.5946,-10.7632,1.7359,-0.4717,-7.4574,-3.1817,5.2325,-14.9644,-13.3215,-7.0588,-7.0725,-9.8578,-9.1232,-3.3559,-5.6932,-2.0344,1.1969,5.5363,-4.1128
519.0000,22.9344,2.8680,-18.7481,-22.0466,1.1636,-5.3769,1.1793,-11.6381,1.2113,-1.4151,-7.9489,-3.4789,4.2232,-15.1089,-13.7607,-7.4009,-7.5933,-10.2542,-9.6839,-3.7035,-6.1978,-2.1807,1.1366,5.0978,-5.1642
520.0000,22.3963,3.5848,-18.8064,-22.0078,0.9000,-5.7538,0.7293,-12.1860,0.6902,-1.9611,-8.0859,-3.5329,3.2131,-13.6915,-13.8796,-7.5373,-7.9709,-10.4452,-9.9549,-3.9334,-6.4518,-2.2639,1.5318,4.5987,-6.0959
521.0000,21.4812,4.9413,-18.7055,-21.3276,0.6975,-5.9076,0.2273,-12.4808,0.1300,-2.2334,-7.9700,-3.4761,2.2207,-11.3618,-13.7715,-7.5489,-8.2610,-10.5003,-10.0142,-4.1023,-6.5225,-2.3042,2.1755,4.0809,-6.8990
522.0000,20.0768,6.5121,-18.5464,-20.2418,0.4576,-5.9909,-0.3947,-12.7024,-0.5530,-2.4733,-7.7856,-3.5269,1.2207,-8.9957,-13.5849,-7.5817,-8.5814,-10.5357,-10.0061,-4.3229,-6.5538,-2.3680,2.7451,3.5230,-7.6579
523.0000,18.0703,7.7593,-18.4329,-19.0432,0.0511,-6.2060,-1.2356,-13.0891,-1.4586,-2.9785,-7.7541,-3.9313,0.1749,-7.4695,-13.4920,-7.8123,-9.0817,-10.6881,-10.1090,-4.7374,-6.7312,-2.5544,2.8839,2.8471,-8.5224
524.0000,15.3997,8.1930,-18.4492,-18.0250,-0.6446,-6.7489,-2.3907,-13.8666,-2.6662,-4.0206,-8.0729,-4.8889,-0.9327,-7.4325,-13.6465,-8.4009,-9.8994,-11.0782,-10.4901,-5.4769,-7.2297,-2.9668,2.2938,1.9482,-9.6571
525.0000,12.0944,7.5214,-18.6374,-17.4183,-1.7058,-7.7518,-3.9127,-15.1761,-4.1998,-5.7621,-8.8550,-6.4867,-2.0702,-9.1385,-14.1419,-9.4434,-11.1132,-11.7740,-11.2589,-6.6190,-8.1610,-3.6779,0.8156,0.7358,-11.1832
526.0000,8.2897,5.7440,-18.9833,-17.3415,-3.1309,-9.2398,-5.7805,-17.0222,-6.0041,-8.1972,-10.0887,-8.6602,-3.1502,-12.3798,-14.9831,-10.9382,-12.7092,-12.7671,-12.4323,-8.1550,-9.5351,-4.7004,-1.5266,-0.8267,-13.1315
527.0000,4.2149,3.1609,-19.4161,-17.7750,-4.8301,-11.1165,-7.8868,-19.2560,-7.9401,-11.1325,-11.6311,-11.1931,-4.0428,-16.5403,-16.0801,-12.7768,-14.5688,-13.9673,-13.9235,-9.9796,-11.2472,-5.9726,-4.5253,-2.6974,-15.4192
528.0000,0.1575,0.2951,-19.8235,-18.5703,-6.6375,-13.1808,-10.0497,-21.6015,-9.8033,-14.2161,-13.2385,-13.7602,-4.6053,-20.7497,-17.2664,-14.7619,-16.4849,-15.2203,-15.5562,-11.9046,-13.0947,-7.3646,-7.8349,-4.7562,-17.8588
529.0000,-3.5841,-2.2453,-20.0814,-19.4924,-8.3460,-15.1723,-12.0448,-23.7156,-11.3610,-17.0081,-14.6263,-15.9985,-4.7188,-24.0946,-18.3392,-16.6484,-18.2019,-16.3430,-17.1040,-13.6959,-14.8206,-8.7060,-11.0475,-6.8300,-20.1939
530.0000,-6.7480,-3.9255,-20.0887,-20.2840,-9.7529,-16.8308,-13.6519,-25.2668,-12.3982,-19.0744,-15.5416,-17.5904,-4.3195,-25.8309,-19.1081,-18.1972,-19.4701,-17.1673,-18.3419,-15.1232,-16.1704,-9.8261,-13.7793,-8.7345,-22.1535
531.0000,-9.1431,-4.4139,-19.7981,-20.7333,-10.7053,-17.9542,-14.7007,-26.0099,-12.7620,-20.0803,-15.8279,-18.3340,-3.4159,-25.5399,-19.4410,-19.2254,-20.0986,-17.5793,-19.0969,-16.0086,-16.9473,-10.5960,-15.7443,-10.3202,-23.5073
532.0000,-10.6661,-3.6490,-19.2340,-20.7267,-11.1321,-18.4391,-15.1053,-25.8372,-12.3916,-19.8587,-15.4628,-18.1831,-2.0853,-23.1945,-19.2940,-19.6418,-19.9953,-17.5444,-19.2844,-16.2624,-17.0513,-10.9612,-16.7996,-11.5074,-24.1083
533.0000,-11.2997,-1.8297,-18.4894,-20.2722,-11.0539,-18.2942,-14.8774,-24.7918,-11.3273,-18.4376,-14.5585,-17.2455,-0.4546,-19.1246,-18.7167,-19.4572,-19.1805,-17.1090,-18.9207,-15.8948,-16.4936,-10.9532,-16.9539,-12.2992,-23.9127
534.0000,-11.0972,0.6628,-17.7032,-19.4863,-10.5695,-17.6249,-14.1157,-23.0451,-9.6970,-16.0210,-13.3261,-15.7447,1.3318,-13.9035,-17.8336,-18.7704,-17.7751,-16.3828,-18.1100,-15.0044,-15.3823,-10.6782,-16.3415,-12.7697,-22.9737
535.0000,-10.1611,3.3800,-17.0239,-18.5516,-9.8230,-16.5975,-12.9756,-20.8437,-7.6839,-12.9320,-12.0141,-13.9548,3.1426,-8.1929,-16.8078,-17.7344,-15.9655,-15.5043,-17.0110,-13.7458,-13.8874,-10.2862,-15.1743,-13.0307,-21.4151
536.0000,-8.6233,5.9221,-16.5686,-17.6577,-8.9639,-15.3927,-11.6281,-18.4469,-5.4859,-9.5347,-10.8420,-12.1313,4.8825,-2.5949,-15.7980,-16.5145,-13.9570,-14.6031,-15.7943,-12.2879,-12.1965,-9.9286,-13.6879,-13.1891,-19.3945
537.0000,-6.6297,8.0207,-16.3911,-16.9466,-8.1094,-14.1642,-10.2209,-16.0695,-3.2763,-6.1583,-9.9462,-10.4552,6.5003,2.4512,-14.9225,-15.2505,-11.9289,-13.7693,-14.6028,-10.7753,-10.4724,-9.7182,-12.0944,-13.3094,-17.0683
538.0000,-4.3312,9.5702,-16.4676,-16.4759,-7.3217,-13.0115,-8.8498,-13.8477,-1.1752,-3.0410,-9.3551,-9.0049,7.9816,6.7072,-14.2375,-14.0322,-10.0021,-13.0369,-13.5256,-9.3023,-8.8260,-9.7016,-10.5534,-13.3937,-14.5669
539.0000,-1.8781,10.6084,-16.7030,-16.2122,-6.6029,-11.9724,-7.5487,-11.8313,0.7610,-0.3064,-8.9962,-7.7612,9.3327,10.1100,-13.7365,-12.8934,-8.2271,-12.3871,-12.5909,-7.9047,-7.3065,-9.8511,-9.1623,-13.3840,-11.9860
540.0000,0.5859,11.2626,-16.9577,-16.0525,-5.9081,-11.0332,-6.2969,-10.0021,2.5345,2.0279,-8.7322,-6.6372,10.5604,12.7056,-13.3652,-11.8218,-6.5908,-11.7644,-11.7752,-6.5698,-5.9109,-10.0770,-7.9619,-13.1870,-9.3904
541.0000,2.9321,11.6881,-17.0827,-15.8640,-5.1693,-10.1489,-5.0402,-8.3055,4.1868,4.0163,-8.4098,-5.5233,11.6577,14.5720,-13.0466,-10.7792,-5.0393,-11.1023,-11.0251,-5.2570,-4.6031,-10.2557,-6.9502,-12.7097,-6.8263
542.0000,5.0573,12.0204,-16.9558,-15.5283,-4.3216,-9.2655,-3.7166,-6.6848,5.7738,5.7430,-7.9071,-4.3284,12.5997,15.7622,-12.7054,-9.7234,-3.5051,-10.3452,-10.2802,-3.9218,-3.3370,-10.2629,-6.0952,-11.8954,-4.3333
543.0000,6.8946,12.3555,-16.5051,-14.9722,-3.3230,-8.3373,-2.2799,-5.1037,7.3424,7.2844,-7.1631,-3.0076,13.3488,16.2853,-12.2845,-8.6242,-1.9319,-9.4626,-9.4911,-2.5341,-2.0734,-10.0034,-5.3449,-10.7456,-1.9511
544.0000,8.4206,12.7564,-15.7164,-14.1791,-2.1630,-7.3330,-0.7130,-3.5541,8.9147,8.6870,-6.1835,-1.5676,13.8676,16.1251,-11.7489,-7.4694,-0.2903,-8.4508,-8.6268,-1.0869,-0.7881,-9.4291,-4.6311,-9.3219,0.2826
545.0000,9.6540,13.2743,-14.6242,-13.1771,-0.8593,-6.2355,0.9679,-2.0485,10.4813,9.9652,-5.0242,-0.0544,14.1315,15.2838,-11.0809,-6.2628,1.4195,-7.3245,-7.6733,0.4064,0.5293,-8.5427,-3.8736,-7.7283,2.3387
546.0000,10.6450,13.9653,-13.2909,-12.0131,0.5528,-5.0365,2.7200,-0.6044,12.0048,11.1131,-3.7613,1.4704,14.1368,13.8273,-10.2686,-5.0155,3.1723,-6.1039,-6.6257,1.9201,1.8812,-7.3886,-2.9862,-6.0795,4.2060
547.0000,11.4578,14.8906,-11.7853,-10.7251,2.0324,-3.7323,4.4844,0.7697,13.4295,12.1229,-2.4622,2.9523,13.8996,11.9092,-9.2988,-3.7398,4.9285,-4.8049,-5.4819,3.4260,3.2673,-6.0374,-1.8909,-4.4694,5.8935
548.0000,12.1502,16.0936,-10.1686,-9.3255,3.5409,-2.3256,6.1963,2.0796,14.6927,12.9995,-1.1670,4.3572,13.4466,9.7628,-8.1573,-2.4464,6.6427,-3.4370,-4.2416,4.8989,4.6846,-4.5699,-0.5362,-2.9499,7.4259
549.0000,12.7566,17.5657,-8.4915,-7.8026,5.0416,-0.8328,7.7917,3.3386,15.7351,13.7642,0.1115,5.6705,12.8025,7.6597,-6.8389,-1.1498,8.2675,-2.0112,-2.9125,6.3146,6.1217,-3.0670,1.0826,-1.5283,8.8294
550.0000,13.2808,19.2130,-6.8044,-6.1406,6.4933,0.7064,9.2090,4.5520,16.5084,14.4473,1.3713,6.8841,11.9798,5.8505,-5.3638,0.1230,9.7530,-0.5535,-1.5219,7.6426,7.5481,-1.6066,2.9097,-0.1829,10.1139
551.0000,13.6991,20.8464,-5.1727,-4.3497,7.8404,2.2216,10.3875,5.6994,16.9791,15.0728,2.5983,7.9783,10.9764,4.5073,-3.7930,1.3240,11.0437,0.8809,-0.1273,8.8379,8.9069,-0.2658,4.8273,1.1082,11.2579
552.0000,13.9743,22.2033,-3.6892,-2.4912,9.0082,3.6127,11.2670,6.7247,17.1303,15.6445,3.7449,8.9084,9.7836,3.6893,-2.2348,2.3812,12.0764,2.2022,1.1805,9.8362,10.1125,0.8757,6.6705,2.3388,12.2034
553.0000,14.0744,23.0018,-2.4746,-0.6885,9.9060,4.7618,11.7908,7.5399,16.9632,16.1384,4.7241,9.6024,8.4024,3.3414,-0.8366,3.2065,12.7846,3.2929,2.2849,10.5588,11.0612,1.7361,8.2572,3.4569,12.8639
554.0000,13.9894,23.0122,-1.6623,0.8880,10.4411,5.5548,11.9135,8.0433,16.4984,16.5087,5.4202,9.9735,6.8620,3.3274,0.2403,3.7118,13.1086,4.0288,3.0639,10.9269,11.6513,2.2395,9.4248,4.3673,13.1459
555.0000,13.7403,22.1231,-1.3686,2.0557,10.5411,5.9075,11.6134,8.1488,15.7772,16.7047,5.7172,9.9439,5.2326,3.4829,0.8551,3.8326,13.0108,4.3093,3.4185,10.8828,11.8088,2.3306,10.0652,4.9538,12.9785
556.0000,13.3772,20.3787,-1.6565,2.6695,10.1774,5.7883,10.9052,7.8168,14.8615,16.6930,5.5338,9.4714,3.6263,3.6705,0.9253,3.5497,12.4915,4.0883,3.3009,10.4112,11.5118,1.9921,10.1472,5.1170,12.3410
557.0000,12.9667,17.9725,-2.5045,2.6654,9.3833,5.2315,9.8479,7.0750,13.8304,16.4778,4.8538,8.5712,2.1828,3.8184,0.4543,2.9033,11.5987,3.3957,2.7334,9.5544,10.8051,1.2597,9.7210,4.8121,11.2803
558.0000,12.5743,15.1978,-3.7919,2.0882,8.2585,4.3346,8.5445,6.0233,12.7736,16.1092,3.7412,7.3230,1.0419,3.9295,-0.4601,1.9931,10.4280,2.3421,1.8123,8.4135,9.7984,0.2273,8.9031,4.0758,9.9112
559.0000,12.2467,12.3705,-5.3081,1.0885,6.9570,3.2409,7.1309,4.8173,11.7809,15.6775,2.3340,5.8615,0.3114,4.0634,-1.6390,0.9636,9.1108,1.1034,0.6928,7.1349,8.6487,-0.9617,7.8475,3.0301,8.3977
560.0000,12.0011,9.7497,-6.7857,-0.1085,5.6607,2.1123,5.7554,3.6371,10.9297,15.2930,0.8177,4.3520,0.0394,4.2989,-2.8566,-0.0221,7.7922,-0.1125,-0.4400,5.8844,7.5301,-2.1352,6.7127,1.8604,6.9200
561.0000,11.8248,7.4841,-7.9517,-1.2546,4.5441,1.0990,4.5539,2.6489,10.2738,15.0580,-0.6131,2.9587,0.2002,4.6953,-3.8855,-0.8136,6.6045,-1.1065,-1.4088,4.8149,6.5986,-3.1232,5.6340,0.7726,5.6372
562.0000,11.6831,5.6021,-8.5820,-2.1351,3.7400,0.3142,3.6254,1.9705,9.8365,15.0401,-1.7946,1.8142,0.6998,5.2669,-4.5429,-1.3012,5.6440,-1.7283,-2.0775,4.0373,5.9634,-3.7896,4.7088,-0.0581,4.6544
563.0000,11.5339,4.0466,-8.5474,-2.6128,3.3150,-0.1784,3.0161,1.6519,9.6086,15.2553,-2.6229,0.9995,1.4002,5.9804,-4.7238,-1.4324,4.9558,-1.9031,-2.3745,3.6015,5.6699,-4.0574,3.9957,-0.5319,4.0048
564.0000,11.3410,2.7411,-7.8373,-2.6480,3.2611,-0.3649,2.7145,1.6746,9.5532,15.6662,-3.0649,0.5372,2.1542,6.7741,-4.4153,-1.2150,4.5319,-1.6395,-2.2980,3.4935,5.7004,-3.9205,3.5262,-0.6478,3.6521
565.0000,11.0829,1.6585,-6.5566,-2.2894,3.5051,-0.2701,2.6580,1.9681,9.6145,16.1953,-3.1518,0.3988,2.8415,7.5885,-3.6892,-0.7068,4.3213,-1.0186,-1.9051,3.6467,5.9889,-3.4398,3.3186,-0.4998,3.5093
566.0000,10.7537,0.8635,-4.8971,-1.6422,3.9310,0.0590,2.7513,2.4370,9.7291,16.7473,-2.9583,0.5206,3.3938,8.3927,-2.6771,0.0040,4.2486,-0.1676,-1.2901,3.9642,6.4454,-2.7260,3.3884,-0.2457,3.4696
567.0000,10.3566,0.5087,-3.0933,-0.8275,4.4101,0.5680,2.8876,2.9886,9.8348,17.2337,-2.5770,0.8221,3.8014,9.1948,-1.5364,0.8197,4.2344,0.7722,-0.5579,4.3440,6.9805,-1.9135,3.7481,-0.0590,3.4384
568.0000,9.8961,0.7811,-1.3733,0.0540,4.8282,1.2037,2.9705,3.5521,9.8773,17.5908,-2.0977,1.2200,4.0999,10.0278,-0.4176,1.6505,4.2116,1.6741,0.1969,4.6993,7.5232,-1.1336,4.3969,-0.0782,3.3561
569.0000,9.3711,1.8152,0.0809,0.9402,5.1042,1.9154,2.9289,4.0836,9.8115,17.7848,-1.5960,1.6353,4.3422,10.9169,0.5597,2.4234,4.1338,2.4449,0.9023,4.9702,8.0267,-0.4941,5.3041,-0.3693,3.2069
570.0000,8.7748,3.6035,1.1562,1.8046,5.1964,2.6500,2.7237,4.5585,9.6005,17.8053,-1.1334,1.9949,4.5664,11.8402,1.3173,3.0828,3.9740,3.0296,1.5096,5.1230,8.4646,-0.0680,6.3945,-0.9125,3.0105
571.0000,8.1012,5.9393,1.8116,2.6358,5.0963,3.3465,2.3460,4.9562,9.2131,17.6513,-0.7629,2.2294,4.7721,12.7001,1.8174,3.5858,3.7175,3.4061,1.9863,5.1422,8.8184,0.1072,7.5445,-1.6150,2.8033
572.0000,7.3545,8.4181,2.0648,3.4111,4.8169,3.9341,1.8086,5.2457,8.6228,17.3153,-0.5364,2.2737,4.9120,13.3206,2.0524,3.8965,3.3526,3.5719,2.3071,5.0189,9.0666,0.0225,8.5926,-2.3465,2.6147
573.0000,6.5579,10.5051,1.9697,4.0778,4.3774,4.3384,1.1359,5.3785,7.8103,16.7751,-0.5049,2.0719,4.9057,13.4757,2.0333,3.9832,2.8638,3.5325,2.4469,4.7418,9.1774,-0.3117,9.3652,-2.9845,2.4494
574.0000,5.7535,11.6552,1.5945,4.5511,3.7943,4.4936,0.3545,5.2953,6.7680,15.9957,-0.7115,1.5878,4.6673,12.9443,1.7813,3.8212,2.2322,3.2937,2.3816,4.2947,9.1123,-0.8734,9.7101,-3.4540,2.2822
575.0000,4.9932,11.4522,1.0051,4.7325,3.0786,4.3588,-0.5126,4.9429,5.5067,14.9425,-1.1776,0.8169,4.1391,11.5756,1.3236,3.3989,1.4419,2.8609,2.0941,3.6614,8.8356,-1.6322,9.5288,-3.7496,2.0660
576.0000,4.3187,9.7268,0.2587,4.5419,2.2396,3.9320,-1.4466,4.2960,4.0607,13.6008,-1.8889,-0.2044,3.3182,9.3442,0.6946,2.7269,0.4894,2.2445,1.5847,2.8357,8.3303,-2.5482,8.7980,-3.9339,1.7533
577.0000,3.7398,6.6166,-0.5949,3.9512,1.2934,3.2563,-2.4303,3.3761,2.4891,11.9937,-2.7883,-1.3990,2.2648,6.3750,-0.0620,1.8423,-0.6059,1.4666,0.8796,1.8318,7.6097,-3.5686,7.5717,-4.1122,1.3200
578.0000,3.2171,2.5497,-1.5074,3.0070,0.2711,2.4149,-3.4440,2.2592,0.8717,10.1924,-3.7814,-2.6590,1.0887,2.9292,-0.8930,0.8082,-1.7970,0.5655,0.0329,0.6908,6.7235,-4.6255,5.9664,-4.3922,0.7869
579.0000,2.6606,-1.8456,-2.4278,1.8296,-0.7781,1.5155,-4.4604,1.0677,-0.6998,8.3125,-4.7536,-3.8655,-0.0832,-0.6478,-1.7395,-0.2939,-3.0117,-0.4050,-0.8788,-0.5204,5.7521,-5.6376,4.1322,-4.8428,0.2275
580.0000,1.9461,-5.8778,-3.3022,0.5893,-1.7886,0.6685,-5.4429,-0.0517,-2.1341,6.4978,-5.5973,-4.9129,-1.1470,-4.0008,-2.5447,-1.3776,-4.1624,-1.3826,-1.7697,-1.7172,4.7932,-6.5176,2.2208,-5.4641,-0.2400
581.0000,0.9501,-8.9395,-4.0788,-0.5359,-2.6868,-0.0343,-6.3447,-0.9587,-3.3519,4.8959,-6.2375,-5.7284,-2.0554,-6.8411,-3.2633,-2.3653,-5.1605,-2.3057,-2.5608,-2.8106,3.9425,-7.1831,0.3610,-6.1776,-0.4766
582.0000,-0.4054,-10.6237,-4.7162,-1.4059,-3.4022,-0.5347,-7.1113,-1.5490,-4.2944,3.6308,-6.6482,-6.2827,-2.8329,-9.0009,-3.8682,-3.1987,-5.9309,-3.1235,-3.1931,-3.7207,3.2762,-7.5686,-1.3523,-6.8412,-0.3562
583.0000,-2.1137,-10.7822,-5.1914,-1.9516,-3.8777,-0.8118,-7.6846,-1.7753,-4.9271,2.7829,-6.8527,-6.5868,-3.5640,-10.4516,-4.3523,-3.8428,-6.4224,-3.8015,-3.6343,-4.3873,2.8406,-7.6353,-2.8531,-7.2832,0.2004
