,TIME,FP1,FP2,F3,F4,C3,C4,P3,P4,O1,O2,F7,F8,P7,P8,Fz,Cz,Pz,FC1,FC2,CP1,CP2,FC5,FC6,CP5,CP6
1,09:30:25.160,-1.5991,1.8203,15.9083,11.259,8.2118,4.5402,6.6433,-0.4837,0.9125,-14.3689,7.1672,3.1479,1.7768,6.3485,13.611,11.2116,4.873,11.4978,7.7836,9.2932,1.6833,5.6732,1.45,6.034,0.1122
3,09:30:25.162,0.9828,7.126,13.3027,4.8078,6.3692,2.879,5.4338,-1.4267,2.3566,-13.8896,5.9341,2.9305,7.4312,8.7822,11.3605,10.0911,4.1695,9.6497,5.2622,7.8734,0.552,3.0781,0.9486,3.213,-2.7544
5,09:30:25.164,4.7597,12.1995,8.2413,-3.8244,3.5234,0.1682,3.5063,-3.0509,3.2806,-14.2554,3.5263,2.2607,13.0815,9.8643,7.1098,7.8462,2.4826,6.3002,1.4146,5.4577,-1.5263,-0.9017,0.2088,-0.3185,-5.6658
7,09:30:25.166,8.8319,14.7947,1.2525,-12.5889,-0.1383,-3.2011,0.7113,-5.6096,2.4742,-16.4237,0.4649,1.2776,16.0441,7.5879,1.3915,4.5655,-0.3969,1.7657,-3.0802,2.2163,-4.4569,-5.6432,-0.3389,-3.9623,-7.9287
9,09:30:25.168,12.1687,14.3201,-6.2618,-19.7175,-4.0132,-6.4936,-2.6915,-8.894,-0.3681,-20.3432,-2.3667,0.2538,15.3228,2.2431,-4.5505,0.875,-4.0248,-3.0902,-7.3607,-1.2752,-7.6815,-10.1964,-0.7626,-7.0667,-9.395
11,09:30:25.170,14.4594,12.1387,-12.9445,-24.6362,-7.3191,-9.0191,-5.9855,-12.0234,-4.0408,-24.5783,-4.5242,-0.7103,12.6114,-3.1467,-9.5538,-2.3637,-7.413,-7.3316,-10.8185,-4.2775,-10.4349,-13.8149,-1.4703,-9.2401,-10.1791
13,09:30:25.172,16.4683,10.2042,-18.2992,-27.8715,-9.5649,-10.4741,-8.424,-13.9313,-6.5843,-27.2513,-6.3599,-1.7758,10.9948,-5.1497,-13.2277,-4.5654,-9.668,-10.4862,-13.2522,-6.3098,-12.1999,-16.3223,-2.4204,-10.5847,-10.3216
15,09:30:25.174,19.3161,9.4516,-22.5344,-30.0525,-10.7473,-10.9185,-9.6972,-14.1618,-6.8338,-27.5085,-8.389,-3.0279,12.3145,-2.9302,-15.8371,-5.64,-10.5462,-12.5963,-14.6391,-7.3311,-12.9094,-17.9073,-2.742,-11.4818,-9.8166
17,09:30:25.176,23.1945,9.4828,-25.5683,-30.8668,-10.982,-10.4059,-9.8843,-13.0846,-5.2305,-25.9871,-10.2764,-4.0286,15.5516,1.2404,-17.4902,-5.6805,-10.3201,-13.6979,-14.7744,-7.4439,-12.6665,-18.4935,-1.3991,-11.9547,-8.7544
19,09:30:25.178,26.8358,9.6148,-26.3487,-28.9502,-9.9694,-8.6532,-8.9512,-11.1976,-3.0426,-23.7391,-10.6679,-3.829,17.7567,4.6737,-17.5298,-4.482,-9.1057,-13.311,-13.1636,-6.4333,-11.2992,-17.3887,1.7782,-11.2501,-7.1259
21,09:30:25.180,28.4902,9.9577,-23.4308,-22.9653,-7.0183,-5.141,-6.4775,-8.2977,-0.8608,-20.8162,-8.277,-1.608,16.7013,7.2802,-14.8947,-1.5138,-6.4716,-10.6201,-9.3291,-3.7363,-8.311,-13.7655,5.9149,-8.2867,-4.4411
23,09:30:25.182,27.5438,11.3568,-16.4064,-13.0355,-1.7989,0.3534,-2.1001,-3.6282,1.924,-16.2449,-3.18,2.5864,12.8007,11.4234,-9.1914,3.4873,-1.9081,-5.3168,-3.316,0.9707,-3.4117,-7.6508,9.9788,-2.7534,0.1052
25,09:30:25.184,25.0429,14.4304,-6.7295,-1.2252,4.8982,7.2285,3.7111,2.9199,6.0296,-9.6323,3.1089,7.7179,8.5847,18.5053,-1.3926,9.8548,4.2415,1.7197,4.0227,7.0927,2.8378,-0.4192,13.6473,4.2125,6.6565
27,09:30:25.186,22.4694,18.8875,3.0205,9.513,11.2982,14.0479,9.4648,9.8271,10.8033,-2.6802,8.9369,12.426,6.3385,26.0155,6.605,16.0138,10.4235,8.6876,11.2348,13.1028,8.9576,5.8782,17.1327,10.5934,13.7875
29,09:30:25.188,20.1158,23.7938,10.8098,17.1128,15.722,19.1749,13.4538,14.5082,14.1331,1.3207,13.7992,15.8866,6.1989,28.6808,13.1799,20.3241,14.6543,13.9468,16.8834,17.3624,13.2679,9.8724,20.3302,14.8841,18.9328
31,09:30:25.190,17.0119,28.2712,16.1717,21.3513,17.6602,21.6544,14.903,15.224,14.0749,-0.048,18.2262,18.1322,6.3981,23.1036,17.8063,22.0692,15.8613,16.9556,20.1817,19.1256,14.8832,11.6927,22.5521,16.9706,20.2165
33,09:30:25.192,12.6505,31.7564,19.7097,23.2056,17.8523,21.7091,14.3913,12.6014,10.6337,-6.1305,22.4882,19.6715,5.2158,11.3468,20.7977,21.7452,14.5956,18.2316,21.2423,18.8702,14.1911,12.4985,23.3351,17.6717,18.1084
35,09:30:25.194,8.567,33.7653,21.7932,23.3714,17.3705,20.4738,13.1753,9.2025,5.8896,-13.443,25.6955,20.895,2.6679,-0.3229,22.4092,20.4515,12.4887,18.4885,20.7925,17.7277,12.4566,13.2384,23.3274,17.5475,15.167
37,09:30:25.196,7.7265,33.8754,21.8998,21.4879,16.6601,19.1659,12.1132,7.4387,2.3207,-18.2627,26.4009,21.8221,0.42,-6.5067,22.3209,18.9887,10.9823,17.8715,19.5752,16.5803,10.8982,13.8569,24.0034,16.3199,13.9086
39,09:30:25.198,11.9838,32.2361,19.2399,16.8122,15.4161,18.3154,11.1903,7.7549,0.9548,-19.2358,24.0597,22.2688,0.2155,-6.7116,20.0103,17.4438,10.441,16.0117,17.882,15.5906,9.9602,13.6177,26.3093,13.4782,14.7715
41,09:30:25.200,20.0911,29.8673,13.9093,9.5638,13.2489,17.6161,9.9503,8.7022,1.0318,-17.7636,19.7149,22.0942,2.4177,-4.664,15.5366,15.4939,10.2837,12.7202,15.5646,14.4273,9.2701,12.0554,29.6402,9.2713,16.0953
43,09:30:25.202,28.3381,27.8868,7.3338,1.4924,10.3384,16.4399,8.2383,8.6273,1.2551,-16.133,15.1658,21.247,5.9381,-4.0209,9.8795,13.0016,9.8091,8.5321,12.4807,12.8238,8.2033,9.5364,32.2177,4.8972,15.9945
45,09:30:25.204,33.2961,26.1192,1.5515,-4.9544,7.4345,14.5202,6.4912,7.2234,1.2226,-15.3638,11.5573,19.685,9.4013,-4.9491,4.4917,10.3148,8.8885,4.5471,8.9476,10.9318,6.5375,6.9556,32.4256,1.6653,14.1558
47,09:30:25.206,34.1207,22.7617,-2.0241,-8.1357,5.3066,12.2182,5.3885,5.5612,1.686,-14.6731,8.8493,17.4064,12.3174,-4.6617,0.4967,8.0711,8.0036,1.7415,5.7456,9.2398,4.6814,5.0084,29.8013,0.0515,11.8703
49,09:30:25.208,32.5066,16.0791,-3.3672,-8.142,4.229,10.2039,5.2941,4.8637,3.61,-12.6661,6.5062,14.628,15.2002,-0.753,-1.8082,6.7555,7.7558,0.3742,3.615,8.2125,3.3412,3.7716,25.0171,-0.4189,10.5736
51,09:30:25.210,30.7608,6.8105,-3.6505,-6.5409,3.9099,8.9019,5.998,5.401,7.0976,-8.8417,4.3948,11.8726,18.6494,6.317,-2.8762,6.3884,8.3446,-0.0638,2.679,7.9618,2.9308,2.8544,19.2889,-0.5064,10.5845
53,09:30:25.212,29.9757,-1.3652,-4.3531,-5.3167,3.7898,8.1969,6.8837,6.4539,11.1524,-4.088,2.8551,9.7515,22.3358,13.7311,-3.4802,6.5252,9.3986,-0.4111,2.3222,8.1618,3.2148,1.8022,13.8722,-0.6261,11.1883
55,09:30:25.214,29.6537,-4.3948,-6.2749,-5.7594,3.3924,7.5905,7.3047,7.077,14.3243,-0.0548,2.0623,8.5532,24.855,18.6495,-4.268,6.5134,10.2079,-1.2733,1.6609,8.2423,3.4652,0.3655,9.7232,-0.7964,11.6017
57,09:30:25.216,28.5217,-1.3494,-9.0202,-7.8263,2.5313,6.6007,6.9014,6.758,15.569,1.8061,1.6548,8.0129,24.6263,19.8057,-5.4688,5.8483,10.1477,-2.6838,0.2112,7.7418,2.9942,-1.4363,7.1387,-0.9355,11.5902
59,09:30:25.218,25.5162,4.6113,-11.2356,-10.1716,1.3625,5.0766,5.733,5.5076,14.6866,0.8426,1.1633,7.5364,21.1329,17.3308,-6.7829,4.4597,9.0255,-4.1213,-1.781,6.6029,1.6371,-3.316,5.6172,-0.9909,11.2508
61,09:30:25.220,20.3742,8.9883,-11.4865,-10.8781,0.3068,3.2691,4.2077,3.6262,12.207,-2.6601,0.7024,6.7348,15.5031,11.9208,-7.4999,2.7846,7.1627,-4.8387,-3.5546,5.207,-0.1705,-4.7592,4.3817,-0.8293,10.5632
63,09:30:25.222,13.872,9.8305,-9.2337,-8.6605,-0.1622,1.696,2.8611,1.5492,8.988,-7.628,1.013,5.8014,9.9435,4.6858,-6.8865,1.5451,5.1837,-4.3176,-4.3524,4.1191,-1.7271,-5.2207,3.319,-0.2382,9.3963
65,09:30:25.224,7.7292,8.9624,-5.2282,-3.8767,0.2092,0.8951,2.0955,-0.2037,5.8453,-12.5727,2.6977,5.359,6.428,-2.493,-4.697,1.3275,3.6698,-2.5915,-3.8476,3.7343,-2.5075,-4.4669,3.2948,0.8073,7.8581
67,09:30:25.226,3.9889,9.5165,-1.0306,1.4626,1.3005,1.1459,2.0341,-1.1821,3.3718,-16.1813,5.4416,5.882,5.6249,-7.2592,-1.4655,2.2313,2.9127,-0.2296,-2.2672,4.097,-2.3915,-2.8065,5.2375,1.9489,6.3721
69,09:30:25.228,3.9876,12.5405,1.9528,4.8806,2.7192,2.2805,2.5571,-1.2621,1.9217,-17.8845,8.0578,7.2138,6.8264,-8.0608,1.6995,3.8442,2.8995,2.0143,-0.2427,4.9913,-1.596,-0.9494,8.8316,2.6771,5.2923
71,09:30:25.230,7.5971,16.2075,3.1609,4.9874,4.0707,3.7319,3.4353,-0.7418,1.6338,-18.0111,9.3383,8.6376,8.8034,-5.2598,3.7307,5.55,3.4494,3.6253,1.4797,6.149,-0.4702,0.4261,12.3602,2.8076,4.5424
73,09:30:25.232,13.3702,18.1494,2.8641,2.1599,5.1508,4.8355,4.411,-0.1305,2.3976,-17.3954,8.8954,9.4356,10.7602,-0.8032,4.1888,6.8946,4.3174,4.5096,2.3454,7.3523,0.6472,1.0214,14.0695,2.6376,3.7403
75,09:30:25.234,19.427,18.0794,1.6804,-2.1278,5.9173,5.1735,5.1969,0.1701,3.795,-16.7629,7.2555,9.3978,12.5691,3.3385,3.3847,7.7126,5.1925,4.8415,2.1933,8.3831,1.4575,0.9132,13.6393,2.5655,2.6245
77,09:30:25.236,24.2737,17.8389,0.1715,-6.5559,6.3511,4.7018,5.5058,0.0012,5.1648,-16.3673,5.2419,8.8162,14.2082,6.4523,1.9961,7.9859,5.6996,4.7825,1.2473,8.9766,1.7087,0.3291,12.1536,2.6386,1.2453
79,09:30:25.238,27.0415,19.0822,-1.2204,-10.5761,6.4264,3.6223,5.1956,-0.6151,5.8661,-16.043,3.3272,8.0667,15.1012,8.9717,0.5659,7.686,5.5357,4.3723,-0.0814,8.9252,1.2717,-0.4553,10.7226,2.6179,-0.2224
81,09:30:25.240,27.399,21.372,-2.0842,-13.9829,6.2411,2.2261,4.4297,-1.5189,5.6041,-15.4657,1.5511,7.3077,14.1426,11.4161,-0.6792,6.8219,4.6832,3.675,-1.4004,8.2653,0.2587,-0.995,9.4691,2.494,-1.6486
83,09:30:25.242,25.59,22.715,-2.0753,-16.179,6.1146,0.8877,3.6489,-2.3668,4.5583,-14.3755,-0.034,6.6225,10.5119,13.6776,-1.6108,5.6281,3.4843,2.9772,-2.3746,7.3343,-0.9424,-0.6231,8.0117,2.7568,-2.8085
85,09:30:25.244,22.4914,21.6737,-1.0654,-16.1212,6.4482,0.1009,3.2942,-2.7009,3.2087,-12.7212,-0.9628,6.3224,4.604,15.2548,-1.9272,4.6009,2.4443,2.757,-2.6499,6.5819,-1.8175,1.2184,6.5942,3.9429,-3.2156
87,09:30:25.246,19.2267,18.5937,0.7979,-13.0829,7.3949,0.3127,3.4784,-2.2714,2.0427,-10.768,-0.5119,6.8662,-1.7696,15.8257,-1.2194,4.2266,1.8979,3.3709,-1.8914,6.2686,-2.0107,4.3952,6.1984,5.8758,-2.3858
89,09:30:25.248,16.3864,14.8256,3.1792,-7.4269,8.6313,1.5668,3.8889,-1.3601,1.3942,-9.0781,1.6571,8.3211,-6.1793,15.3421,0.6155,4.597,1.8203,4.7064,-0.0428,6.3069,-1.5537,7.8104,7.3742,7.4928,-0.4241
91,09:30:25.250,13.6469,11.2141,5.6253,-0.5899,9.4764,3.3149,4.0128,-0.6901,1.4456,-8.2487,4.9716,9.9504,-6.8615,13.6925,3.0287,5.2861,1.9244,6.1258,2.4174,6.3635,-0.8579,9.8723,9.2946,7.5949,1.7442
93,09:30:25.252,10.3758,7.6965,7.5006,5.6678,9.2958,4.6939,3.4899,-0.8891,2.2066,-8.5263,8.1044,10.5365,-3.6273,10.6428,4.9525,5.6317,1.9044,6.7922,4.5649,6.1011,-0.4562,9.4593,10.3478,5.835,2.9258
95,09:30:25.254,6.685,4.2009,7.9564,10.0041,7.8656,5.086,2.3034,-2.0088,3.3881,-9.6553,9.7638,9.2865,2.1513,6.3277,5.3807,5.1754,1.5818,6.1358,5.5053,5.3397,-0.6888,6.6089,9.6438,2.9582,2.5459
97,09:30:25.256,3.7134,1.4127,6.1956,11.6801,5.421,4.4441,0.6912,-3.5906,4.3637,-11.1552,9.4632,6.4747,8.3673,1.6703,3.9304,3.8808,0.8776,4.1094,4.8666,4.0535,-1.5642,2.3561,7.6531,0.0817,1.0018
99,09:30:25.258,2.6936,0.332,1.998,10.3664,2.4203,3.1036,-1.0927,-5.1769,4.4493,-12.7648,7.635,3.1941,13.2093,-2.0018,0.952,2.0088,-0.2513,1.0947,2.9019,2.2999,-2.8648,-2.0789,5.3274,-2.2031,-0.8207
101,09:30:25.260,3.7703,1.214,-3.914,6.1052,-0.7093,1.3693,-2.9363,-6.677,3.374,-14.5817,5.1075,0.5074,15.7672,-3.9569,-2.8067,-0.1303,-1.7716,-2.3756,0.1854,0.212,-4.3474,-5.9903,2.9736,-4.0197,-2.2987
103,09:30:25.262,5.8782,3.2557,-10.082,-0.4218,-3.6434,-0.6357,-4.8371,-8.2214,1.4971,-16.767,2.5367,-1.1407,15.986,-4.6747,-6.6129,-2.2864,-3.4848,-5.8168,-2.7442,-1.9566,-5.85,-9.2263,0.3633,-5.6592,-3.3674
105,09:30:25.264,7.7846,5.3838,-15.0459,-7.7607,-6.1062,-2.7685,-6.764,-9.7848,-0.5024,-19.1964,0.2809,-1.8035,14.2281,-5.3875,-9.9419,-4.2318,-5.0698,-8.8324,-5.504,-3.8659,-7.2657,-11.7621,-2.1989,-7.0644,-4.28
107,09:30:25.266,9.096,7.1181,-18.0826,-14.1449,-7.8798,-4.6971,-8.5845,-11.1107,-2.1926,-21.4832,-1.4106,-1.6116,10.9276,-6.9939,-12.4873,-5.7616,-6.2993,-11.1223,-7.8144,-5.2625,-8.5006,-13.4244,-3.4883,-7.9587,-5.2938
109,09:30:25.268,10.1825,8.4981,-19.3847,-18.3812,-8.9212,-6.076,-10.1264,-12.0334,-3.645,-23.3315,-2.3601,-0.6858,6.6148,-9.4208,-14.1642,-6.8055,-7.2309,-12.5623,-9.4975,-6.156,-9.4999,-14.0614,-2.4385,-8.3594,-6.5806
111,09:30:25.270,11.3281,9.3488,-19.5625,-20.4261,-9.3969,-6.857,-11.2761,-12.7339,-5.1427,-24.768,-2.6785,0.602,2.1547,-11.9616,-15.1029,-7.4831,-8.1252,-13.2502,-10.5442,-6.7782,-10.2746,-13.8017,0.5162,-8.7049,-8.1725
113,09:30:25.272,12.2636,9.0198,-18.8983,-21.0691,-9.4635,-7.2609,-11.9481,-13.5152,-6.6852,-25.9531,-2.8056,1.6085,-1.2278,-14.0394,-15.475,-7.9215,-9.0974,-13.344,-11.043,-7.2752,-10.8023,-12.9104,3.5537,-9.2906,-9.7448
115,09:30:25.274,12.6057,7.0964,-16.9787,-20.9359,-8.9234,-7.3233,-11.9076,-14.2744,-7.8045,-26.766,-3.0302,1.9636,-2.3938,-15.4748,-15.1574,-7.9361,-9.7974,-12.7412,-10.8976,-7.3695,-10.8303,-11.3036,5.0903,-9.6099,-10.4692
117,09:30:25.276,12.5263,4.296,-13.0222,-19.684,-7.1352,-6.5054,-10.6393,-14.2448,-7.8044,-26.5937,-2.8677,2.1827,-0.9829,-16.0191,-13.5551,-6.9097,-9.4314,-10.92,-9.6022,-6.3281,-9.7835,-8.3489,5.209,-8.441,-9.3206
119,09:30:25.278,12.7493,2.4301,-6.6438,-16.1305,-3.3969,-3.8899,-7.5034,-12.3352,-6.1108,-24.519,-1.0965,3.5433,2.2245,-14.8367,-9.8911,-4.0766,-7.1526,-7.2106,-6.4208,-3.3458,-6.9561,-3.385,5.4432,-4.7786,-5.7327
121,09:30:25.280,13.8727,3.2869,1.5909,-9.2404,2.4359,1.1122,-2.1851,-7.8252,-2.455,-19.7738,3.3043,7.115,5.6824,-10.7642,-3.8313,0.9564,-2.5574,-1.3641,-0.9449,1.9015,-1.9335,3.4262,7.3289,1.223,0.0029
123,09:30:25.282,15.8082,7.3947,10.3115,0.8364,9.624,8.1551,4.8667,-0.9257,3.0359,-12.2588,10.0959,12.7645,8.0078,-3.3751,4.0771,7.8379,4.0105,6.0519,6.4132,8.9258,5.0192,10.7993,11.2761,8.2026,6.9544
125,09:30:25.284,17.8603,13.6817,18.0654,12.5105,16.803,15.9496,12.4012,7.0937,9.6852,-2.9626,17.6526,19.0473,8.7736,6.0651,12.5366,15.4845,11.4708,13.7738,14.4105,16.5246,12.8519,16.9915,16.5746,14.4721,14.0224
127,09:30:25.286,19.1848,20.1738,23.9745,23.4407,22.6094,22.7971,18.8354,14.2555,16.1956,6.0067,23.9379,24.0573,8.5499,14.8165,20.0493,22.4206,18.2974,20.3664,21.4427,23.2144,19.9934,20.8743,22.0002,18.9776,20.0998
129,09:30:25.288,19.1577,25.082,27.7883,31.5986,26.1917,27.2603,22.947,18.6418,21.0064,12.1429,27.6732,26.4881,8.2119,20.2314,25.42,27.2635,23.0195,24.7416,26.1547,27.7552,24.9033,22.4452,26.2635,21.5405,23.9873
131,09:30:25.290,17.6375,27.5566,29.4439,35.9599,27.3446,28.6652,24.3524,19.356,23.0782,13.9256,28.7216,26.1686,8.1745,21.5985,27.9687,29.2103,24.8078,26.4027,27.8831,29.5665,26.7113,22.4218,28.3194,22.4059,24.6895
133,09:30:25.292,15.3086,27.7816,28.7493,36.4872,26.3783,27.3326,23.5193,17.1207,22.5264,11.9317,27.6436,23.9411,8.2616,20.6857,27.5824,28.3792,23.8764,25.4589,26.8276,28.9048,25.6355,21.4668,27.8714,21.7716,22.2382
135,09:30:25.294,13.8228,26.492,25.5872,33.6484,23.933,24.4285,21.3881,13.8779,20.4729,8.5085,25.1483,21.159,8.2822,20.2883,24.7531,25.7634,21.3589,22.5397,23.9179,26.6951,22.8568,19.8049,25.7414,19.7653,18.1581
137,09:30:25.296,15.1245,24.2945,20.3509,27.9758,20.7692,21.3398,18.8536,11.4131,18.175,5.9279,21.9351,19.0439,8.6432,21.8175,20.4705,22.6654,18.5941,18.5905,20.342,24.0107,19.7929,17.3892,23.3712,16.6676,14.6124
139,09:30:25.298,20.0132,21.3471,14.0033,19.9957,17.4835,18.8313,16.3684,10.0272,16.2093,4.5328,18.6979,18.0687,10.231,24.0283,15.8006,19.8989,16.2757,14.4983,16.9054,21.4621,17.2155,14.1922,21.5773,12.9142,12.6374
141,09:30:25.300,27.1211,17.7451,7.6198,10.485,14.286,16.6576,13.8605,8.5117,14.4135,2.7097,15.9193,17.7071,13.5103,24.1561,11.3784,17.4118,14.1688,10.7389,13.6912,18.9647,14.9311,10.2878,19.857,8.8443,11.2296
143,09:30:25.302,33.5423,14.2621,1.9455,0.7344,11.1112,14.1162,11.0362,5.5702,12.4839,-1.1553,13.625,16.9197,17.6925,20.5166,7.3337,14.7333,11.6762,7.3926,10.4103,16.1489,12.3567,5.873,17.2361,4.6262,8.5164
145,09:30:25.304,36.8853,12.486,-2.5253,-7.5236,8.0749,11.1291,7.9133,1.3548,10.5033,-6.668,11.5884,15.1891,20.9513,14.1257,3.7966,11.8589,8.74,4.5756,7.1941,13.0901,9.4796,1.4696,13.8511,0.6047,4.0595
147,09:30:25.306,36.9913,13.777,-5.174,-12.631,5.8254,8.7495,5.1681,-2.4339,8.898,-11.474,9.9365,13.2088,21.746,7.789,1.4048,9.6486,6.185,2.8235,4.9938,10.6302,7.2327,-1.8905,11.3602,-2.3348,-0.1216
149,09:30:25.308,35.755,17.8091,-5.291,-13.7232,5.2956,8.4348,3.9023,-3.9842,8.0287,-13.335,9.3989,12.4187,20.1327,3.6673,1.089,9.2418,5.1348,2.8901,5.0165,9.8763,6.8377,-2.9591,11.4838,-3.0165,-1.083
151,09:30:25.310,35.3137,22.3303,-2.7163,-11.1517,6.9588,10.7334,4.8857,-2.8561,7.95,-12.0368,10.6811,13.6842,17.7345,1.8566,3.2188,11.0336,6.0659,5.0542,7.6504,11.2912,8.7363,-1.0686,14.2453,-0.8308,2.3615
153,09:30:25.312,36.3506,24.8701,1.6482,-6.2135,10.3197,14.7521,7.8843,-0.0362,8.5139,-9.1742,13.5412,16.4246,16.2065,1.2822,7.0556,14.2861,8.4426,8.6777,12.0052,14.2732,12.1998,3.2548,17.9748,3.6189,8.5227
155,09:30:25.314,37.8816,25.0176,6.2829,-0.282,14.231,18.9882,11.728,3.284,9.5315,-6.267,16.7277,19.1413,15.5528,1.5219,11.2572,17.7961,11.2539,12.5972,16.6312,17.6682,16.0061,8.5614,21.1032,8.8517,14.3904
157,09:30:25.316,38.2968,24.8793,10.2165,6.0075,17.7618,22.6187,15.1215,6.7107,10.7413,-3.469,19.0554,20.8084,13.9987,3.1639,14.9792,20.8872,13.8317,16.0118,20.6927,20.6841,19.4322,13.4642,23.6107,13.5982,18.1952
159,09:30:25.318,36.4657,26.8852,13.6651,12.7912,20.7006,25.8379,17.4595,10.3683,11.7301,-0.2641,20.4711,21.6044,9.7552,6.2269,18.3298,23.642,16.0837,18.8951,24.3208,23.2515,22.4931,17.3775,26.41,17.5498,20.3868
161,09:30:25.320,32.1836,30.9266,17.3024,20.1196,23.1656,28.9384,18.8845,13.8874,12.0665,2.9108,21.794,22.1936,3.1393,8.7813,21.5993,26.1733,17.9897,21.4439,27.7713,25.4994,25.2463,20.3084,29.4742,20.993,22.2693
163,09:30:25.322,26.1326,33.84,20.861,26.9658,24.8212,31.286,19.6148,16.0475,11.5646,4.2787,23.3122,22.4383,-3.0175,7.947,24.1498,27.8486,19.0488,23.2018,30.3974,27.0136,27.0536,22.0731,31.078,23.7817,24.0017
165,09:30:25.324,19.6832,32.1001,22.6844,31.1274,24.6905,31.455,19.3488,15.5956,10.3142,2.2115,23.8819,21.1217,-5.2702,2.6465,24.3735,27.4503,18.3965,22.9563,30.7071,26.7947,26.7403,21.9525,29.1986,24.8621,24.1259
167,09:30:25.326,14.4412,25.285,20.9339,30.3639,21.901,28.4565,17.4451,12.3352,8.3906,-3.0377,21.7657,17.1367,-2.2284,-4.8711,20.9898,24.1955,15.5282,19.6949,27.5817,24.0504,23.5711,19.2513,23.5653,22.9855,20.9772
169,09:30:25.328,11.4572,16.8993,15.3281,23.9864,16.627,22.7599,13.6923,7.304,5.6504,-9.3088,16.4845,10.9108,4.3226,-10.6607,14.4016,18.5677,10.8759,13.6971,21.4227,19.0206,18.0419,14.1484,16.117,17.9308,14.4103
171,09:30:25.330,10.6056,11.6281,7.6183,13.5965,10.2217,16.0553,8.8011,1.9464,2.0117,-14.2316,9.6888,4.4982,10.8004,-12.3562,6.66,12.1057,5.6387,6.6051,14.0455,12.9813,11.6794,7.876,9.4712,10.968,6.1755
173,09:30:25.332,10.8296,11.5437,0.2885,2.2997,4.3578,10.0529,4.0366,-2.7781,-2.0361,-16.8535,4.0062,0.1411,14.4617,-10.7567,0.0178,6.3739,1.0296,0.3431,7.4374,7.4135,6.0518,2.0081,5.0977,4.0596,-1.2319
175,09:30:25.334,11.1273,14.7011,-5.2004,-7.0271,-0.0164,5.5043,0.3227,-6.5899,-5.4181,-17.739,0.9712,-1.3568,15.0646,-8.3461,-4.5183,2.0835,-2.3824,-4.0995,2.5815,3.1181,1.899,-2.4431,2.8628,-1.4428,-6.1011
177,09:30:25.336,11.233,17.1423,-8.9451,-13.0644,-2.9977,2.2046,-2.3066,-9.5587,-7.2321,-17.911,0.0829,-0.9892,14.371,-6.7557,-7.3471,-0.9591,-4.7534,-6.9555,-0.6905,0.0043,-0.9717,-5.3364,1.8801,-5.4245,-8.2436
179,09:30:25.338,11.2574,16.1907,-11.6294,-16.0385,-5.1953,-0.3225,-4.4221,-11.8331,-7.5832,-18.0027,-0.2147,-0.469,14.2469,-5.969,-9.2622,-3.2591,-6.5581,-8.9563,-2.9622,-2.4266,-3.1437,-7.0297,1.4417,-8.526,-8.6446
181,09:30:25.340,10.8928,12.1266,-13.2856,-16.6343,-6.9621,-2.2215,-6.425,-13.5527,-7.4899,-18.2058,-0.8009,-0.7779,15.1412,-5.5085,-10.448,-5.0263,-8.0902,-10.4166,-4.467,-4.4377,-4.9532,-7.8275,1.3147,-11.1655,-8.4958
183,09:30:25.342,9.4581,7.2968,-13.0771,-14.9972,-8.0314,-3.1675,-8.031,-14.6338,-7.7722,-18.4033,-1.1342,-1.4966,16.0598,-5.3672,-10.3689,-5.9608,-9.1716,-10.9194,-4.8854,-5.7467,-6.1584,-7.6922,1.7049,-12.9829,-8.2787
185,09:30:25.344,6.9844,4.0689,-10.1569,-10.7826,-7.7057,-2.5654,-8.4243,-14.4503,-8.0321,-17.9583,-0.0045,-1.2346,15.6791,-5.2256,-8.3834,-5.425,-9.1704,-9.7036,-3.6447,-5.6685,-6.0206,-6.2833,3.2311,-13.0815,-7.4365
187,09:30:25.346,4.964,3.5175,-4.6246,-4.1113,-5.365,0.0988,-6.8792,-11.9848,-6.9033,-15.6628,3.1913,1.3063,13.4103,-3.3762,-4.3651,-2.8594,-7.3514,-6.3229,-0.3856,-3.5674,-3.7622,-3.2193,6.6166,-10.7525,-4.8669
189,09:30:25.348,5.4269,5.386,2.2678,3.6677,-0.9957,4.8005,-3.3548,-6.7626,-3.4646,-10.5991,7.8586,6.3341,9.6144,2.3052,1.084,1.6953,-3.4744,-1.1278,4.6269,0.6012,0.7523,1.4975,11.8576,-6.1114,0.0357
191,09:30:25.350,8.9245,8.5715,8.6745,10.3797,4.5177,10.5941,1.3078,0.1446,1.5737,-3.4761,12.5961,12.5867,5.1387,11.6127,6.7649,7.2436,1.7045,4.663,10.3087,5.9527,6.5218,7.0771,17.553,-0.2559,6.5621
193,09:30:25.352,13.568,11.4566,12.9631,14.4165,9.5884,15.7243,5.6751,6.2249,6.1389,3.0777,16.0087,17.8342,0.8418,20.6788,11.2286,12.0417,6.5186,9.3779,15.0138,10.8571,11.6173,11.9685,21.4447,5.1385,12.8203
195,09:30:25.354,16.3992,12.2746,14.3209,15.8459,12.6572,18.4275,8.3527,8.9857,8.2934,6.0559,17.3136,20.0665,-2.527,24.3829,13.3205,14.4499,9.203,11.6709,17.2934,13.6958,14.1646,14.5759,22.0678,8.5798,16.7749
197,09:30:25.356,15.8608,9.939,12.9685,16.0684,13.0404,17.9178,8.634,7.5561,7.5387,4.2523,16.5223,18.6409,-4.3036,20.6627,12.7375,13.8692,8.9047,11.2202,16.6937,13.731,13.4213,14.2459,19.9371,9.4341,17.3292
199,09:30:25.358,12.8616,5.0194,9.9045,16.2047,11.2119,14.7024,6.7635,2.9671,4.8192,-1.0087,14.2502,14.5453,-4.0752,12.3288,10.1434,10.9535,6.0652,8.7833,13.881,11.3983,10.043,11.6298,16.9048,8.0457,14.6156
201,09:30:25.360,9.4754,-0.133,6.2677,15.7389,8.2421,9.9471,3.6195,-2.9982,1.4877,-7.227,11.2851,9.5754,-1.9929,4.4159,6.6062,6.8992,1.8888,5.5004,9.924,7.7858,5.3473,7.995,14.2806,5.2214,9.5202
203,09:30:25.362,6.9024,-2.6409,2.7076,12.8525,4.9366,4.5951,0.0799,-9.0596,-1.6076,-12.6217,8.1494,5.1644,1.1652,-0.0478,2.812,2.544,-2.5244,2.0608,5.4494,3.8329,0.3615,4.1539,11.7624,1.5767,3.1695
205,09:30:25.364,4.9511,-0.966,-0.735,6.2799,1.5383,-0.8509,-3.3647,-14.6001,-4.181,-16.6585,4.9828,1.8593,4.3956,-1.412,-1.1627,-1.8274,-6.5492,-1.4674,0.5586,0.0163,-4.4283,0.1426,8.3282,-2.5972,-3.156
207,09:30:25.366,3.2962,4.1121,-4.1604,-3.0533,-1.7935,-5.8369,-6.4451,-18.9899,-6.0449,-19.1328,1.8407,-0.3192,7.0259,-1.084,-5.3156,-5.9289,-9.746,-5.0526,-4.4885,-3.3216,-8.5983,-4.0589,3.9577,-6.8432,-8.0003
209,09:30:25.368,2.6111,10.1816,-7.2833,-12.241,-4.436,-9.4045,-8.7117,-21.2896,-6.897,-19.4471,-0.9433,-1.3255,8.8849,0.9352,-9.1178,-9.0199,-11.537,-8.1358,-8.758,-5.6098,-11.4135,-7.7133,0.114,-10.0903,-10.1396
211,09:30:25.370,3.9549,14.8576,-9.4213,-18.3029,-5.4863,-10.6309,-9.4979,-20.8969,-6.5873,-17.2274,-2.7911,-1.0761,9.9589,5.3139,-11.6267,-10.2467,-11.435,-9.8262,-11.0584,-6.2453,-12.1799,-9.523,-1.5758,-10.9779,-9.2914
213,09:30:25.372,7.1049,16.9872,-9.957,-20.0154,-4.5566,-9.4455,-8.4131,-18.3402,-5.3918,-13.4308,-3.3027,0.1461,10.0268,10.6021,-12.2032,-9.4321,-9.6042,-9.6662,-10.9102,-5.1707,-10.9384,-8.7303,-0.8944,-8.8479,-6.3727
215,09:30:25.374,10.0129,16.6307,-8.7107,-18.1228,-2.2539,-6.8256,-5.8427,-15.1346,-3.8468,-10.2366,-2.5535,1.5946,8.8121,12.5999,-10.9762,-7.3444,-6.995,-8.0553,-8.9653,-3.098,-8.6002,-5.893,0.8698,-4.4537,-2.8911
217,09:30:25.376,10.3819,14.2747,-5.9206,-14.1623,0.2616,-4.056,-2.835,-12.733,-2.3388,-9.441,-0.9207,2.5715,6.5239,7.681,-8.5676,-5.0736,-4.7371,-5.8486,-6.3973,-1.0267,-6.2718,-2.4423,2.2278,0.4192,-0.0069
219,09:30:25.378,7.884,10.2483,-2.1473,-9.428,2.1593,-1.8494,-0.4171,-11.6828,-1.0043,-11.0222,1.2451,2.9609,4.0161,-3.2326,-5.5838,-3.2261,-3.3813,-3.6717,-3.9973,0.438,-4.5125,0.4578,2.6116,4.1487,1.8309
221,09:30:25.380,4.6562,4.7812,1.5619,-5.0198,3.2793,-0.2613,0.9754,-11.7916,-0.081,-13.5091,3.5522,3.0727,2.0903,-14.775,-2.6188,-1.8456,-2.7974,-1.8006,-1.9936,1.2204,-3.3338,2.4787,2.2533,6.1866,2.5124
223,09:30:25.382,3.4483,-1.6344,3.6094,-2.2948,3.6808,0.6924,1.4291,-12.8344,-0.1919,-15.7222,5.1888,2.9618,0.5149,-21.7378,-0.6288,-1.0065,-2.7529,-0.6133,-0.5997,1.3323,-2.7794,3.6687,1.4175,6.9229,1.8919
225,09:30:25.384,5.2127,-8.0682,2.5747,-2.459,3.1717,0.6961,1.0909,-14.7623,-2.003,-17.8509,4.9982,2.1501,-2.0319,-23.4371,-0.7607,-1.1341,-3.3691,-0.7481,-0.3099,0.5689,-3.1726,3.8329,0.2035,6.8583,0.0343
227,09:30:25.386,8.4189,-13.2586,-1.4186,-5.2822,1.579,-0.3589,-0.0186,-17.1826,-5.4138,-20.6591,2.4195,0.2532,-6.6444,-23.2796,-3.2883,-2.4645,-4.826,-2.4385,-1.3191,-1.1422,-4.5854,2.731,-0.923,6.0722,-2.2819
229,09:30:25.388,10.5677,-15.8196,-6.0328,-8.445,-0.5516,-1.6679,-1.6956,-18.9815,-9.1147,-23.883,-1.485,-2.1655,-12.5795,-24.3201,-6.6963,-4.2696,-6.6903,-4.7132,-2.7411,-3.1622,-6.2053,0.8461,-0.8612,4.4703,-3.709
231,09:30:25.390,10.3054,-14.5229,-7.9281,-8.8015,-1.8797,-1.7032,-3.2572,-18.8844,-11.1455,-25.855,-4.2361,-3.642,-17.0878,-25.9301,-8.2838,-4.9808,-7.8142,-5.6527,-2.8305,-4.2142,-6.5926,-0.4692,1.4388,2.3283,-3.3144
233,09:30:25.392,8.2508,-8.7744,-5.2386,-4.8452,-1.2337,0.5818,-3.8187,-16.5518,-10.152,-24.9215,-3.6298,-2.931,-17.2139,-25.0571,-6.1894,-3.3948,-7.1415,-3.8399,-0.3552,-3.2988,-4.8228,-0.0039,5.9529,0.3671,-1.4701
235,09:30:25.394,6.1269,0.8487,0.8891,1.878,1.2812,4.7041,-2.9796,-13.0065,-6.3024,-21.0966,0.506,-0.0914,-12.1131,-20.1078,-0.9994,0.1939,-4.6535,0.3369,4.1907,-0.5893,-1.3694,2.1167,11.3905,-0.7729,0.3886
237,09:30:25.396,5.3146,12.478,7.2554,7.8766,4.2773,8.9343,-1.1779,-9.8263,-1.0847,-16.1181,6.2131,3.618,-3.7566,-12.7475,4.7404,4.1756,-1.4264,4.9333,8.8862,2.6739,2.2699,4.4695,16.0736,-1.0635,0.9964
239,09:30:25.398,6.1169,23.5294,11.1775,10.3993,6.2793,11.7121,0.7081,-7.8865,3.7959,-11.8852,11.0807,6.8793,4.6339,-5.8243,8.6846,6.9923,1.289,8.0718,11.9844,5.2257,4.8593,5.7039,18.9311,-1.0668,0.2588
241,09:30:25.400,8.0397,31.5931,12.1715,9.272,6.8929,12.7917,2.0799,-6.9019,7.4554,-8.9806,13.9986,9.2155,10.9301,-0.3433,10.3534,8.2963,3.0092,9.2937,13.2074,6.6895,6.2955,5.7802,19.6724,-1.4405,-0.9105
243,09:30:25.402,10.4652,34.9743,11.3385,6.4455,6.7798,13.0504,2.9127,-6.0778,10.0301,-6.6886,15.3281,10.7644,15.1123,4.7966,10.777,8.7975,4.0774,9.3696,13.5033,7.5022,7.2599,5.7173,18.3114,-2.4894,-1.54
245,09:30:25.404,13.0172,32.791,9.5989,4.0774,6.6577,13.353,3.4525,-4.9898,12.1136,-4.1564,15.6813,11.452,18.3388,10.3517,10.8663,9.1883,4.9799,9.0617,13.7492,8.1375,8.2336,6.1971,14.9393,-4.0659,-1.2011
247,09:30:25.406,15.4688,25.2118,7.0008,3.1022,6.5917,13.783,3.8646,-3.7345,14.1203,-1.2532,14.9827,10.7927,21.3506,15.0049,10.5296,9.4713,5.8264,8.4077,13.9366,8.629,9.0717,6.6984,10.1088,-5.678,0.2397
249,09:30:25.408,17.5192,14.1041,3.7407,3.2918,6.3444,13.9589,4.3173,-2.3976,16.1035,1.6388,12.9268,8.6739,23.8344,16.6722,9.4133,9.3647,6.5358,7.2656,13.6292,8.8776,9.5134,6.188,5.1837,-6.5857,3.0692
251,09:30:25.410,18.7648,3.2544,1.283,4.1459,6.1785,13.8484,5.2623,-0.6959,17.9426,4.2758,10.0898,6.1222,25.0461,15.1415,8.0749,9.0964,7.307,6.2126,12.9249,9.1907,9.8321,4.5508,1.8838,-5.9535,7.523
253,09:30:25.412,18.8926,-3.0054,1.787,5.4299,6.9522,14.0019,7.3035,1.6771,19.4849,6.667,8.0822,4.8834,24.6822,12.6149,7.9136,9.4639,8.6177,6.4549,12.6346,10.2239,10.7071,3.0503,1.1872,-3.2365,13.0415
255,09:30:25.414,17.8955,-2.4706,6.1319,7.0192,9.2581,14.9211,10.567,4.4377,20.4821,8.6058,8.2788,5.9652,23.0577,11.3825,9.7779,10.997,10.6615,8.6656,13.4313,12.2896,12.4265,3.195,2.6161,1.3393,17.9876
257,09:30:25.416,16.1277,3.1597,12.6513,8.6143,12.5776,16.3425,14.2566,6.6548,20.5702,9.4482,10.4215,8.5807,20.6902,11.4701,12.8497,13.1982,12.9208,12.0483,14.9852,14.835,14.388,5.1891,4.6566,6.6697,20.4665
259,09:30:25.418,14.1857,9.464,18.062,9.8074,15.4792,17.3032,17.0445,7.4354,19.5268,8.6422,12.659,10.6643,17.9844,11.1182,15.1362,14.7874,14.4729,14.755,16.1053,16.7558,15.5354,7.6168,5.9676,11.3023,19.6551
261,09:30:25.420,12.7099,12.816,19.7769,10.323,16.7258,16.9508,18.047,6.6592,17.6137,6.4526,13.0624,10.5518,15.2952,9.389,15.0924,14.743,14.7615,15.2949,15.7406,17.2662,15.2775,8.6887,6.2883,14.2526,16.3704
263,09:30:25.422,12.1855,13.0502,17.4451,10.0334,16.1727,15.2392,17.4255,4.988,15.5504,3.9356,11.1215,8.2419,13.0198,7.5649,12.7052,13.0658,14.0025,13.5341,13.7786,16.436,13.9017,7.7756,6.3024,15.4115,12.302
265,09:30:25.424,12.7574,12.7223,12.5598,8.7846,14.6182,12.8277,16.018,3.161,13.9893,2.034,7.8596,5.1242,11.4314,7.567,9.1034,10.5503,12.8072,10.429,10.9079,14.9024,12.1074,5.7595,6.7246,15.2299,8.6505
267,09:30:25.426,14.0995,13.9224,6.9522,6.4208,12.9126,10.3822,14.4579,1.3385,12.9591,0.7219,4.7202,2.6278,10.4881,9.4026,5.3839,7.9371,11.4956,7.0073,7.8697,13.1646,10.2623,4.0245,7.5349,14.0863,5.4439
269,09:30:25.428,15.4689,16.1692,1.7439,3.1107,11.3092,8.0637,12.7427,-0.8354,11.8809,-0.8448,2.5062,1.2049,9.9512,10.9252,1.9693,5.3858,9.8777,3.7255,4.9668,11.2348,8.2065,3.2179,8.0561,12.0171,2.053
271,09:30:25.430,16.0548,17.5243,-2.6368,-0.4313,9.6013,5.6854,10.6187,-3.5668,10.1964,-3.2836,1.2782,0.5075,9.6559,10.3566,-1.0826,2.7055,7.6863,0.6523,2.2247,8.9189,5.7253,2.9487,7.7405,9.0283,-1.7442
273,09:30:25.432,15.4937,17.257,-5.9968,-3.2148,7.6905,3.254,8.2017,-6.3809,7.9821,-6.1287,0.9167,0.2762,9.4912,8.5625,-3.5304,-0.0859,5.0994,-2.0472,-0.1865,6.2978,3.0646,2.519,6.867,5.5506,-5.209
275,09:30:25.434,14.1623,16.6594,-8.2028,-4.5652,5.8853,1.237,6.0667,-8.2938,5.9255,-8.0557,1.4639,0.8059,9.1159,8.235,-4.9319,-2.5583,2.744,-4.0052,-1.855,3.844,0.8927,1.7978,6.4231,2.461,-7.041
277,09:30:25.436,12.9177,17.0418,-9.2788,-4.4812,4.6775,0.2538,4.7513,-8.5351,4.7315,-7.9689,2.8892,2.4953,8.0105,10.762,-5.0867,-4.1942,1.2086,-4.9605,-2.4502,2.0877,-0.2238,1.3564,7.21,0.5888,-6.2812
279,09:30:25.438,12.4103,17.5518,-9.3797,-3.4784,4.3187,0.518,4.2988,-7.1566,4.6147,-5.9023,4.7381,5.0833,6.159,14.3386,-4.3095,-4.8285,0.6102,-5.0172,-2.0695,1.2118,-0.2704,1.8161,8.9987,0.1668,-2.9615
281,09:30:25.440,12.5389,15.7679,-8.6114,-2.1867,4.6156,1.5872,4.3223,-5.0146,5.3379,-2.9471,6.2369,7.5187,4.6532,15.5128,-3.2202,-4.7643,0.6068,-4.5669,-1.2412,0.9459,0.2318,3.1092,10.6077,0.7246,1.8799
283,09:30:25.442,12.5557,10.5542,-7.0501,-1.1077,5.0381,2.6292,4.3941,-3.2216,6.5695,-0.4066,6.8196,8.6823,5.1888,12.5095,-2.3641,-4.5503,0.7087,-4.0565,-0.6224,0.7683,0.5946,4.3708,10.9153,1.4595,6.665
285,09:30:25.444,11.7354,3.718,-5.0612,-0.6123,4.9654,2.9148,4.2398,-2.5775,8.0117,0.9693,6.5115,8.2346,8.54,6.7998,-2.0771,-4.7102,0.4969,-3.89,-0.6979,0.1763,0.299,4.5415,9.8396,1.7067,9.8661
287,09:30:25.446,9.9868,-1.6681,-3.5031,-0.9761,3.9116,2.106,3.5995,-3.3721,9.1863,1.0782,5.7568,6.7348,13.488,1.4755,-2.5956,-5.621,-0.3756,-4.4521,-1.6847,-1.156,-0.9022,3.1161,8.2682,1.1472,10.4855
289,09:30:25.448,7.8609,-4.3692,-3.4222,-2.3555,1.6921,0.2073,2.1232,-5.514,9.3491,0.0652,4.8775,4.9538,17.5273,-1.5564,-4.1198,-7.4766,-2.1849,-6.0408,-3.5977,-3.3301,-3.0264,0.3949,6.9816,-0.2592,8.3382
291,09:30:25.450,6.0228,-5.8307,-5.4251,-4.7982,-1.4903,-2.6054,-0.3994,-8.6861,7.915,-1.9773,3.7209,3.1391,18.8334,-2.641,-6.7037,-10.2173,-4.9684,-8.6721,-6.3192,-6.2154,-5.8885,-2.8945,5.7188,-2.3813,4.0751
293,09:30:25.452,4.7433,-7.8461,-9.3028,-8.2997,-5.1031,-6.0254,-3.69,-12.3707,5.07,-4.8976,1.8505,0.9903,17.52,-3.1016,-10.1339,-13.4571,-8.3438,-11.9693,-9.5941,-9.4692,-9.0992,-6.1541,3.4538,-4.9098,-1.095
295,09:30:25.454,3.8569,-10.0249,-14.1842,-12.7352,-8.4952,-9.5412,-6.9939,-15.8699,1.8314,-8.2109,-0.9128,-1.6925,14.956,-3.5482,-13.9593,-16.5567,-11.6041,-15.3072,-13.0016,-12.6198,-12.1294,-9.1218,-0.3376,-7.3398,-5.8869
297,09:30:25.456,3.109,-10.2178,-18.9659,-17.6197,-11.1554,-12.4746,-9.5561,-18.487,-0.6779,-11.1028,-4.1355,-4.453,12.1087,-3.623,-17.6219,-18.8868,-14.1041,-18.1058,-15.9997,-15.2142,-14.4716,-11.6582,-4.7577,-9.1266,-9.3655
299,09:30:25.458,2.4561,-7.2964,-22.6607,-22.017,-12.872,-14.253,-11.1235,-19.8063,-2.0731,-12.8172,-6.9677,-6.3629,8.9064,-2.9388,-20.5798,-20.1242,-15.6174,-20.0375,-18.0907,-16.9728,-15.8157,-13.524,-7.95,-9.9987,-11.0961
301,09:30:25.460,2.0082,-2.734,-24.6182,-24.9247,-13.7338,-14.7331,-11.9849,-19.8336,-2.8072,-13.0981,-8.7317,-6.7884,5.2029,-1.6675,-22.4235,-20.3644,-16.3495,-21.0488,-19.0406,-17.8775,-16.1344,-14.4826,-8.5655,-10.1495,-11.065
303,09:30:25.462,1.6925,0.9956,-24.7039,-25.8984,-14.0053,-14.2565,-12.5677,-18.8972,-3.4778,-12.3126,-9.3481,-5.9537,1.8061,-0.149,-23.0139,-19.9702,-16.65,-21.2714,-18.9872,-18.1424,-15.6503,-14.5625,-6.8436,-10.0455,-9.6051
305,09:30:25.464,0.9924,3.0848,-23.3163,-25.2125,-13.9368,-13.345,-13.0458,-17.4672,-4.1829,-11.2082,-9.1926,-4.7456,-0.0855,1.5432,-22.5199,-19.2818,-16.7436,-20.8986,-18.2988,-18.0685,-14.7267,-14.0388,-4.3584,-9.9331,-7.4288
307,09:30:25.466,-0.9208,4.6185,-21.0577,-23.2633,-13.5927,-12.3059,-13.3115,-16.0737,-4.6569,-10.5483,-8.5727,-4.0024,-0.5731,3.1555,-21.2234,-18.4127,-16.6999,-20.051,-17.2585,-17.8603,-13.7344,-13.0546,-2.7919,-9.4879,-5.5458
309,09:30:25.468,-4.6146,5.9917,-18.2849,-19.8929,-12.8363,-11.1197,-13.2196,-15.2516,-4.9302,-10.8396,-7.4598,-4.0221,-1.6763,3.5293,-19.2499,-17.2844,-16.5582,-18.7156,-15.8645,-17.5399,-12.9336,-11.3818,-2.8704,-8.0227,-4.8012
311,09:30:25.470,-9.7092,4.9168,-15.0953,-14.6073,-11.5629,-9.6898,-12.7852,-15.3135,-5.5875,-12.1646,-5.8472,-4.6972,-5.6505,1.0223,-16.5979,-15.8629,-16.3908,-16.8973,-13.9863,-17.0496,-12.4146,-8.7914,-4.1927,-5.1974,-5.2056
313,09:30:25.472,-14.6754,-1.9912,-11.8754,-7.6612,-10.035,-8.1546,-12.188,-16.0116,-7.1917,-14.0852,-4.3127,-5.9412,-12.4862,-4.7541,-13.5376,-14.3779,-16.2411,-14.9249,-11.7502,-16.4553,-12.1251,-5.7546,-5.7756,-1.6451,-5.7148
315,09:30:25.474,-17.5682,-15.3153,-9.6679,-0.7458,-8.946,-6.9041,-11.6869,-16.5054,-9.5055,-15.7352,-3.941,-7.7907,-19.3064,-11.6596,-10.8635,-13.2863,-16.0704,-13.5378,-9.7079,-16.0275,-11.9614,-3.584,-6.7221,1.1154,-4.9494
317,09:30:25.476,-17.4343,-30.8871,-9.5319,3.8244,-8.9796,-6.2728,-11.5496,-15.9299,-11.4792,-16.2453,-5.3628,-10.0482,-22.5431,-16.0673,-9.4441,-12.9493,-15.8193,-13.4293,-8.4933,-16.0592,-11.8514,-3.5462,-6.6536,1.5621,-2.4669
319,09:30:25.478,-15.318,-42.1681,-11.2353,4.8844,-10.1539,-6.2396,-11.952,-14.2103,-12.1342,-15.3542,-7.7841,-11.9832,-20.8447,-15.7933,-9.3124,-13.287,-15.5127,-14.5075,-8.2343,-16.5634,-11.7758,-5.639,-5.8594,-0.7725,0.5512
321,09:30:25.480,-13.7502,-44.7743,-12.7955,3.3168,-11.6106,-6.4567,-12.8127,-12.3099,-11.423,-13.7165,-9.2181,-12.6321,-15.9252,-12.224,-9.3212,-13.7644,-15.2541,-15.6587,-8.3523,-17.1715,-11.7381,-8.3175,-5.1375,-4.8935,2.0171
323,09:30:25.482,-14.7607,-38.9097,-11.8744,1.0039,-12.1919,-6.571,-13.6991,-11.4937,-10.1356,-12.5006,-8.0497,-11.5474,-10.7566,-9.365,-8.0354,-13.7818,-15.0839,-15.4943,-8.0523,-17.3749,-11.7243,-9.644,-5.2821,-8.9182,0.605
325,09:30:25.484,-17.939,-27.9935,-8.0154,-1.0913,-11.3478,-6.4762,-13.9842,-12.181,-8.9526,-12.4542,-4.5497,-9.236,-7.0957,-10.4219,-5.1692,-13.1198,-14.8404,-13.5349,-7.0509,-16.8801,-11.6591,-8.8522,-6.4262,-11.1926,-3.0739
327,09:30:25.486,-20.3646,-15.6147,-3.4017,-3.5715,-9.4863,-6.218,-13.1974,-13.4746,-7.6566,-13.1756,-0.7405,-6.7377,-4.6139,-14.9682,-2.0371,-11.9789,-14.16,-10.6492,-5.7579,-15.6992,-11.3403,-6.8115,-7.7507,-11.137,-6.8513
329,09:30:25.488,-18.725,-3.8662,-1.0363,-7.2481,-7.3976,-5.6728,-11.2602,-13.8523,-5.3048,-13.254,1.426,-4.6797,-1.9326,-19.2474,-0.3482,-10.5587,-12.6178,-8.1961,-4.6811,-13.8951,-10.3936,-4.968,-7.9194,-9.3007,-8.562
331,09:30:25.490,-11.916,6.2436,-1.9588,-11.4154,-5.3734,-4.4128,-8.4055,-12.3735,-1.1364,-11.2353,1.8226,-2.7482,1.8919,-19.2412,-0.4797,-8.6547,-9.9185,-6.686,-3.7071,-11.3263,-8.37,-3.9068,-5.9938,-6.7614,-7.4002
333,09:30:25.492,-1.8785,13.9316,-4.3292,-13.9381,-2.9936,-2.0119,-4.9349,-9.2999,4.6898,-6.681,2.0466,-0.1458,6.7616,-13.7328,-1.0769,-5.7988,-6.0719,-5.3736,-2.1212,-7.7748,-5.048,-3.0039,-2.1159,-4.4255,-4.0764
335,09:30:25.494,7.9748,18.7085,-5.3538,-13.2803,0.1826,1.4307,-1.1309,-5.708,11.1404,-0.5315,3.5837,3.4003,11.8337,-4.8868,-0.4796,-1.8863,-1.5079,-3.2307,0.5687,-3.3876,-0.7737,-1.3952,2.5664,-2.6949,-0.0158
337,09:30:25.496,15.2042,20.9456,-4.0262,-10.2564,3.8298,5.0906,2.6241,-2.6507,16.943,5.4364,6.1906,7.1136,16.045,3.7304,1.5344,2.3821,2.9638,-0.2279,3.8887,1.0825,3.5035,0.9123,6.6258,-1.5491,3.4807
339,09:30:25.498,19.516,21.7625,-1.8299,-7.4024,6.9242,7.8566,5.8132,-0.6552,21.205,9.6197,8.1944,9.6926,18.5563,9.6949,3.5823,5.8347,6.4543,2.5067,6.6334,4.6329,6.6921,2.9919,9.1728,-0.7897,5.6197
341,09:30:25.500,21.9785,22.1045,-0.8394,-6.4386,8.6584,9.1305,8.0523,0.2633,23.6436,11.4027,8.3223,10.3942,19.2202,12.8204,4.2457,7.7359,8.4736,3.835,7.9432,6.7375,8.2703,3.9523,10.2572,-0.2032,6.2672
343,09:30:25.502,23.4804,22.0176,-1.4719,-6.4632,9.2083,9.2948,9.4274,0.4419,24.4847,11.3429,7.051,9.6228,18.8902,14.4064,3.6195,8.3899,9.2439,3.7773,8.1329,7.7472,8.6626,3.7609,10.6914,0.3824,6.1018
345,09:30:25.504,24.0274,20.8666,-2.3271,-4.835,9.4818,9.3801,10.4427,0.4969,24.2296,10.6996,6.0653,8.4794,19.0354,15.7516,3.1478,8.7838,9.5098,3.4127,8.3717,8.5181,8.883,3.0788,11.4352,1.0412,6.457
347,09:30:25.506,23.2377,18.1318,-2.0571,0.0985,10.097,10.1673,11.4857,1.1242,23.3877,10.612,6.5034,7.7566,20.615,17.2436,3.99,9.5807,9.9046,3.6544,9.4973,9.5755,9.6737,2.4283,12.8746,1.6524,8.4756
349,09:30:25.508,21.102,13.96,-0.9774,7.1466,10.6922,11.4904,12.3178,2.5913,22.2341,11.3978,7.8873,7.3577,23.1352,18.4551,5.7395,10.4535,10.3871,4.2755,11.147,10.5994,10.8633,1.6965,14.4312,1.8765,11.9878
351,09:30:25.510,18.0837,9.1573,-0.66,13.0371,10.2936,12.3433,12.1768,4.2769,20.7215,12.3907,8.7403,6.607,24.9302,18.7556,6.8159,10.4117,10.2679,4.2022,12.0475,10.714,11.511,0.4617,14.8375,1.3229,15.2178
353,09:30:25.512,14.6537,4.8428,-2.1814,14.9109,8.3186,11.6764,10.4693,4.8773,18.6424,12.4282,8.0331,5.0027,24.534,17.7637,5.969,8.7546,8.8196,2.6519,11.1177,9.2812,10.6979,-1.3606,12.9835,-0.1449,15.9106
355,09:30:25.514,11.0184,1.9354,-5.1109,12.2114,5.1536,9.1879,7.386,3.3452,15.9298,10.6723,5.8953,2.6238,21.8104,15.4121,3.2671,5.6965,5.9218,-0.1494,8.2994,6.4548,8.2575,-3.3423,8.7405,-2.2087,13.0741
357,09:30:25.516,7.3915,0.5628,-8.2104,6.583,1.792,5.5027,3.8383,-0.1959,12.835,7.2089,3.1011,-0.0872,17.7591,11.8691,-0.251,2.1379,2.1903,-3.3063,4.4536,3.0528,4.8584,-4.9813,3.1231,-4.2028,7.7837
359,09:30:25.518,4.3497,-0.196,-10.7483,0.4036,-0.9588,1.7294,0.8218,-4.4284,9.8469,3.0384,0.2342,-2.7325,13.3949,7.5862,-3.5545,-1.0353,-1.4344,-6.0561,0.6558,-0.0163,1.498,-6.1591,-2.3003,-5.4711,2.3495
361,09:30:25.520,2.6707,-1.6661,-12.8255,-4.5396,-2.8495,-1.1422,-1.143,-7.7487,7.4663,-0.49,-2.454,-5.0408,9.0522,3.4042,-6.0917,-3.3782,-4.2032,-8.0986,-2.3365,-2.214,-1.0564,-7.0679,-6.2234,-5.6888,-1.306
363,09:30:25.522,2.7209,-4.2344,-14.5698,-7.469,-3.9233,-2.5995,-2.0467,-9.2896,6.0276,-2.3968,-4.5951,-6.6585,4.7845,0.4133,-7.5536,-4.7865,-5.7894,-9.3048,-4.1314,-3.4308,-2.4767,-7.7485,-8.0506,-4.9202,-2.6328
365,09:30:25.524,4.058,-6.5703,-15.4924,-8.4642,-4.1502,-2.6799,-2.089,-9.2403,5.6062,-2.5229,-5.5541,-7.1206,1.1268,-0.5355,-7.6616,-5.2652,-6.2442,-9.4663,-4.5985,-3.8188,-2.8003,-7.8625,-7.8637,-3.4641,-2.2666
367,09:30:25.526,5.7084,-6.5048,-14.9416,-8.2565,-3.4935,-1.8958,-1.5012,-8.411,5.9594,-1.5079,-4.9761,-6.2259,-0.9068,0.6636,-6.4675,-4.9731,-5.9022,-8.5519,-3.9561,-3.6861,-2.3553,-7.0336,-6.1894,-1.7214,-1.2836
369,09:30:25.528,6.8384,-2.9836,-13.0523,-7.9485,-2.2639,-1.0355,-0.6288,-7.5984,6.5471,-0.3495,-3.3643,-4.4175,-0.6741,3.3168,-4.7145,-4.4038,-5.3083,-7.0993,-2.8839,-3.4759,-1.7327,-5.4099,-3.7852,-0.1893,-0.6589
371,09:30:25.530,7.1548,2.8482,-10.8959,-8.4381,-1.1798,-0.7877,0.0323,-7.2279,6.7714,0.2034,-1.8423,-2.6162,1.401,6.3984,-3.5392,-4.2569,-5.0297,-6.0594,-2.2612,-3.6427,-1.6002,-3.8033,-1.4,0.5741,-1.0005
373,09:30:25.532,6.759,8.6123,-9.54,-9.7932,-0.8959,-1.3278,0.0881,-7.3077,6.3905,0.06,-1.2069,-1.5308,4.1121,9.0897,-3.5998,-4.9302,-5.3299,-6.0693,-2.562,-4.3825,-2.2971,-3.1707,0.5183,0.2012,-2.2778
375,09:30:25.534,5.8118,12.6835,-9.1003,-11.2042,-1.4433,-2.2125,-0.4112,-7.5352,5.7616,-0.2885,-1.2803,-1.1212,6.4004,10.9198,-4.5391,-6.1417,-5.9666,-6.91,-3.4785,-5.4586,-3.5375,-3.8577,1.9758,-1.1337,-3.6736
377,09:30:25.536,4.5007,15.1017,-8.8649,-11.7001,-2.1889,-2.7597,-0.9592,-7.5072,5.5905,-0.2718,-1.2633,-0.7805,7.9497,11.5752,-5.4101,-7.1607,-6.3866,-7.7668,-4.2317,-6.36,-4.5956,-5.2637,3.2695,-2.6426,-4.0164
379,09:30:25.538,3.2972,16.6739,-8.2522,-10.9839,-2.3773,-2.6072,-0.9949,-7.0178,6.3263,0.2708,-0.6523,-0.0215,8.9942,10.85,-5.6164,-7.4672,-6.2056,-8.013,-4.295,-6.6936,-4.8977,-6.2146,4.6752,-3.3498,-2.7201
381,09:30:25.540,3.0091,17.627,-7.415,-9.5709,-1.717,-1.9294,-0.3406,-6.2524,7.7569,1.0592,0.3109,1.0927,9.7927,8.9157,-5.3587,-7.1564,-5.5239,-7.6707,-3.8004,-6.4454,-4.4736,-5.7483,6.3176,-2.743,-0.3571
383,09:30:25.542,4.2822,17.4298,-6.8585,-8.1996,-0.5009,-1.1632,0.7312,-5.6551,9.1975,1.7569,1.0508,2.1742,10.384,6.4576,-5.2195,-6.7125,-4.7886,-7.1611,-3.2764,-5.8983,-3.8461,-3.737,8.2434,-1.0905,1.8526
385,09:30:25.544,6.8755,15.6879,-6.7071,-7.2873,0.709,-0.6464,1.7742,-5.5659,10.0491,2.2637,1.2945,2.9882,10.6709,4.1965,-5.5156,-6.5115,-4.4127,-6.8083,-3.1366,-5.379,-3.5425,-0.9577,10.3528,0.8414,3.1551
387,09:30:25.546,9.4664,12.6857,-6.6127,-7.0094,1.4151,-0.5987,2.4305,-6.0303,10.1429,2.5513,1.156,3.5425,10.4971,2.1194,-6.1885,-6.6649,-4.5857,-6.7345,-3.529,-5.1435,-3.7835,1.3773,12.0724,2.3678,3.7202
389,09:30:25.548,10.3699,8.8898,-6.3657,-7.6551,1.2903,-1.3352,2.4678,-6.9877,9.595,2.3249,0.7169,3.7445,9.6297,-0.611,-7.1909,-7.2832,-5.3927,-7.1309,-4.5772,-5.4363,-4.5975,2.2993,12.2583,3.2198,3.938
391,09:30:25.550,8.6761,4.3268,-6.3292,-9.4964,0.1861,-3.2208,1.737,-8.5341,8.4844,1.1092,-0.1857,3.2097,7.8932,-4.646,-8.689,-8.6475,-6.9318,-8.3345,-6.4854,-6.479,-6.0439,1.5696,9.8504,3.4445,3.5345
393,09:30:25.552,4.82,-1.0953,-7.0772,-12.13,-1.7768,-6.2251,0.2516,-10.8199,6.8047,-1.1597,-1.6224,1.6022,5.4927,-9.2878,-10.7509,-10.9268,-9.1696,-10.4545,-9.2233,-8.2599,-8.1432,-0.2887,4.9201,3.149,1.7673
395,09:30:25.554,0.0803,-6.7313,-8.689,-14.2089,-4.1373,-9.6076,-1.6939,-13.647,4.7017,-3.7371,-3.2053,-0.8808,3.126,-12.6149,-12.9962,-13.7687,-11.7239,-13.0195,-12.2135,-10.3643,-10.6075,-2.4059,-1.0202,2.4314,-1.427
397,09:30:25.556,-4.4573,-11.1619,-10.6007,-14.2974,-6.2718,-12.2955,-3.6129,-16.3319,2.6026,-5.5179,-4.3405,-3.5538,1.5779,-13.0664,-14.8035,-16.3762,-13.9679,-15.2259,-14.5992,-12.1628,-12.8302,-4.1374,-6.0321,1.4765,-4.814
399,09:30:25.558,-8.4237,-13.2931,-12.179,-12.2407,-7.7719,-13.7126,-5.1288,-18.1403,1.0043,-5.9859,-4.9085,-5.8367,1.1471,-10.8675,-15.9066,-18.1128,-15.4605,-16.6199,-15.9574,-13.2651,-14.2884,-5.3822,-9.174,0.5499,-6.738
401,09:30:25.560,-11.7357,-13.3049,-13.2563,-9.5224,-8.6451,-14.1526,-6.1686,-18.8381,0.1664,-5.5626,-5.4702,-7.6572,1.583,-7.6025,-16.6032,-18.9592,-16.2153,-17.4155,-16.6228,-13.7472,-14.9097,-6.4143,-10.8012,-0.1957,-6.6025
403,09:30:25.562,-13.885,-12.281,-13.9872,-7.9258,-9.0941,-14.2075,-6.811,-18.6614,0.0808,-4.8475,-6.5606,-9.1202,2.6209,-4.2696,-17.2317,-19.2683,-16.4444,-18.0307,-17.1373,-13.8603,-14.9151,-7.4004,-11.4713,-0.8531,-5.2265
405,09:30:25.564,-13.9871,-11.1122,-14.3498,-7.7042,-9.1432,-13.9063,-7.009,-17.7371,0.6859,-3.6481,-7.8152,-9.9053,4.3829,-0.067,-17.5588,-19.1414,-16.0902,-18.4179,-17.4273,-13.5713,-14.3209,-8.0821,-10.9331,-1.6117,-3.6941
407,09:30:25.566,-11.7494,-10.1931,-14.105,-7.2397,-8.605,-12.6657,-6.6178,-15.7929,1.9399,-1.1414,-8.0686,-9.332,6.9961,6.4609,-16.9451,-18.2752,-14.8181,-18.0882,-16.7755,-12.5652,-12.8122,-7.9769,-8.6406,-2.4838,-2.2078
409,09:30:25.568,-8.3125,-10.1346,-13.3319,-4.7323,-7.4733,-10.2156,-5.7706,-12.7217,3.5809,2.774,-6.5243,-7.2445,9.8194,14.9879,-15.2118,-16.5443,-12.6142,-16.873,-14.7658,-10.8078,-10.2931,-6.9379,-5.2126,-3.2724,-0.4312
411,09:30:25.570,-5.8182,-12.0079,-12.7327,-0.2417,-6.2378,-7.3923,-5.1094,-9.3972,4.92,6.5115,-3.7689,-4.68,11.3566,22.4696,-13.1611,-14.5779,-10.2829,-15.4573,-12.1182,-8.9943,-7.4874,-5.4982,-2.7525,-3.8536,1.2089
413,09:30:25.572,-5.8253,-16.1498,-13.0597,4.0752,-5.6246,-5.6904,-5.4225,-7.5437,5.0885,7.6576,-1.4329,-3.2911,10.2642,25.0702,-11.9892,-13.4633,-9.0832,-14.8898,-10.2982,-8.1971,-5.6998,-4.573,-3.0962,-4.3992,1.2256
415,09:30:25.574,-8.0108,-20.8597,-14.2014,5.8009,-5.9417,-5.891,-6.9288,-8.4001,3.624,5.0943,-0.7679,-3.875,6.5103,21.1944,-12.1497,-13.746,-9.6898,-15.5181,-10.1797,-8.9187,-5.7535,-4.7246,-5.7243,-5.1815,-1.4007
417,09:30:25.576,-10.4452,-23.1678,-15.1172,4.2299,-6.7559,-7.2711,-8.9684,-11.4299,0.7915,0.1829,-1.6433,-5.548,1.3999,12.6032,-12.9648,-14.8447,-11.5507,-16.6006,-11.2303,-10.5453,-7.1818,-5.6808,-7.922,-6.1239,-5.5033
419,09:30:25.578,-11.1899,-21.5703,-14.9308,0.5065,-7.3147,-8.3492,-10.5026,-14.5577,-2.7111,-4.3846,-2.991,-6.5625,-3.6105,2.6391,-13.4712,-15.6319,-13.3936,-17.1282,-12.1769,-11.8698,-8.6278,-6.5992,-7.3962,-6.6474,-8.1144
421,09:30:25.580,-9.6796,-17.8093,-14.0164,-3.9253,-7.2791,-8.3918,-10.9521,-15.9005,-6.3001,-6.9679,-4.089,-5.9974,-7.9932,-6.4053,-13.5233,-15.5867,-14.3905,-16.9412,-12.4078,-12.1878,-9.1166,-6.8342,-4.6067,-6.0896,-7.0347
423,09:30:25.582,-6.7117,-15.2929,-13.7136,-8.6169,-6.9514,-8.0247,-10.5187,-15.3312,-9.6627,-8.1401,-5.1944,-4.5785,-11.9317,-14.1647,-13.8464,-15.225,-14.7464,-16.8155,-12.5,-11.8121,-8.8635,-6.4621,-2.1823,-4.3157,-3.0583
425,09:30:25.584,-3.3902,-15.5203,-14.8194,-13.7796,-6.7638,-8.3282,-9.7265,-14.3455,-12.4267,-9.5584,-6.9127,-3.8489,-15.1658,-20.9994,-14.9832,-15.3335,-15.1413,-17.3942,-13.3026,-11.494,-8.7898,-6.0754,-2.0606,-1.8999,0.5652
427,09:30:25.586,-0.3097,-16.4566,-16.5137,-19.042,-6.6639,-9.5186,-8.7911,-14.473,-13.9188,-11.9778,-9.2003,-4.6747,-16.4132,-26.6407,-16.4124,-15.929,-15.7518,-18.2344,-14.7261,-11.4706,-9.3614,-6.1076,-3.6021,0.287,0.9926
429,09:30:25.588,2.3424,-14.784,-17.0115,-23.0797,-6.1326,-10.7039,-7.5426,-15.8946,-13.4966,-14.5873,-11.2288,-6.6207,-14.2381,-30.272,-16.9269,-16.1575,-15.9933,-18.1303,-15.7022,-11.2243,-10.0618,-6.3912,-4.7052,1.6267,-1.8592
431,09:30:25.590,4.334,-9.5244,-15.3149,-24.6819,-4.7979,-10.8671,-5.8916,-17.5062,-11.1664,-16.0983,-12.1871,-8.5709,-8.5373,-31.4963,-15.855,-15.2036,-15.2006,-16.3656,-15.3286,-10.1534,-9.9975,-6.3514,-4.3674,1.9369,-5.6323
433,09:30:25.592,5.4576,-2.9795,-12.1911,-23.9499,-2.9004,-9.8432,-4.1625,-18.0602,-7.7368,-16.0206,-11.9729,-9.6399,-1.0301,-30.5912,-13.7219,-13.1133,-13.3642,-13.4599,-13.7985,-8.2886,-8.8262,-5.5761,-3.5542,1.2852,-7.8524
435,09:30:25.594,6.0722,1.8328,-9.3952,-22.1379,-1.0787,-8.2447,-2.841,-17.098,-4.2428,-14.6656,-10.9991,-9.4496,5.837,-27.7035,-11.6453,-10.6275,-11.073,-10.605,-12.0452,-6.2277,-6.961,-4.1966,-3.5233,-0.1837,-7.8071
437,09:30:25.596,7.2244,4.0493,-8.1211,-20.331,0.2247,-6.6475,-2.0567,-14.9658,-1.2279,-12.2471,-9.5348,-7.9146,10.5216,-22.3019,-10.251,-8.3595,-8.8422,-8.5325,-10.6388,-4.4624,-4.9836,-2.7967,-3.9605,-2.1996,-6.4679
439,09:30:25.598,9.8635,4.9665,-8.3668,-18.547,1.0343,-5.1302,-1.4645,-12.3049,1.368,-8.5347,-7.5257,-5.2214,13.0548,-13.9505,-9.3492,-6.3537,-6.7087,-7.1198,-9.3202,-2.9693,-3.1075,-2.0311,-3.3855,-4.2985,-5.1239
441,09:30:25.600,13.8423,5.7888,-9.6046,-16.2342,1.5649,-3.5858,-0.6749,-9.69,3.7088,-3.5533,-5.0585,-2.0609,14.3462,-3.6101,-8.5619,-4.4395,-4.5179,-6.0103,-7.6399,-1.5014,-1.2826,-2.2718,-1.2377,-5.9917,-4.3206
443,09:30:25.602,17.8252,6.3391,-11.5683,-13.3671,1.8689,-2.1552,0.2989,-7.5366,5.6451,1.7618,-2.6764,0.5309,15.0459,6.2501,-7.9223,-2.7387,-2.3984,-5.2607,-5.7376,-0.0881,0.3972,-3.4313,1.1722,-7.0644,-3.7919
445,09:30:25.604,20.2959,6.2365,-14.0709,-10.6946,1.887,-1.091,1.1027,-6.0035,6.8757,6.0585,-0.956,1.9685,15.0743,13.1307,-7.6541,-1.5832,-0.7417,-5.1348,-4.2004,0.9531,1.657,-4.971,2.192,-7.6589,-2.9052
447,09:30:25.606,20.6477,6.5245,-16.2988,-8.9098,1.7499,-0.3085,1.4824,-4.8767,7.3798,8.753,0.1522,2.7414,14.0337,16.0533,-7.5477,-1.0031,0.2579,-5.4151,-3.2395,1.4716,2.4138,-6.1235,1.9208,-8.025,-1.0536
449,09:30:25.608,19.3122,9.1292,-16.8885,-7.9243,1.806,0.5993,1.5385,-3.7437,7.4793,10.432,1.2566,3.9194,11.8649,15.6257,-6.9341,-0.5808,0.8285,-5.309,-2.3633,1.7321,2.9521,-6.3181,2.132,-8.2169,1.9983
451,09:30:25.610,17.0275,14.5517,-15.0672,-7.1784,2.2544,1.7737,1.5396,-2.4674,7.4376,11.9455,2.6747,5.8587,9.1037,12.9311,-5.4319,0.0443,1.2833,-4.2366,-1.0481,2.0931,3.5663,-5.5564,4.0384,-8.0511,5.7424
453,09:30:25.612,14.2509,20.7563,-11.5496,-6.4224,2.8904,2.7472,1.6393,-1.4182,7.1766,13.3584,3.8764,7.5937,6.6375,8.8645,-3.4975,0.69,1.6085,-2.529,0.491,2.5652,4.1462,-4.348,6.7347,-7.2787,8.9319
455,09:30:25.614,11.3319,24.8643,-7.8938,-5.7525,3.4094,2.9878,1.9092,-1.0336,6.56,14.1099,4.0881,7.8279,5.2527,4.6181,-1.9206,0.8999,1.6028,-1.0449,1.5488,2.9028,4.3584,-3.1376,8.3881,-5.7028,10.3622
457,09:30:25.616,8.9623,25.7647,-4.8424,-4.8215,3.9604,2.7842,2.5748,-1.1077,5.8922,14.1157,3.468,6.5603,5.2477,2.1588,-0.754,0.7121,1.4263,-0.0597,1.9875,3.1456,4.2854,-1.746,8.7564,-3.1681,9.9441
459,09:30:25.618,8.0358,24.6318,-1.5809,-2.5306,5.1773,3.2778,3.9719,-0.7308,5.8907,14.2433,3.3548,5.4356,6.2421,3.3382,0.9613,0.9017,1.754,1.1915,2.7114,3.8301,4.6477,0.503,9.7871,0.3517,8.9169
461,09:30:25.620,8.8634,22.996,3.0315,1.8847,7.4486,5.3274,6.0873,0.8338,6.9837,15.3597,5.0155,6.195,7.2905,8.1475,4.1156,2.2056,3.1331,3.6013,4.7372,5.4201,6.1184,3.9377,13.2746,4.4607,8.7224
463,09:30:25.622,10.637,20.9498,8.524,7.3419,10.1567,8.3415,8.1908,3.1979,8.6756,17.0624,8.1086,8.7795,7.3507,14.153,8.1779,4.3061,5.1793,6.8467,7.78,7.5186,8.3804,7.7873,18.2087,8.1553,9.5576
465,09:30:25.624,11.9059,17.5975,12.4403,10.9253,11.822,10.4451,9.1288,4.9343,9.774,17.7698,10.6025,11.1579,5.9146,18.182,11.1456,5.7799,6.6061,9.1975,10.0369,8.8461,10.0555,10.3964,21.0445,10.171,10.1541
467,09:30:25.626,11.7246,12.7905,12.1877,9.9442,11.1736,9.9613,8.1498,4.7404,9.3464,16.2571,10.41,11.1351,3.3666,18.8106,11.0402,5.2084,6.2177,8.8463,9.6024,8.1813,9.7529,10.356,18.8699,9.7684,9.078
469,09:30:25.628,10.3388,7.6515,7.3132,4.2029,8.1353,6.7516,5.4791,2.5137,7.4456,12.9133,7.1482,8.2739,0.7445,17.1576,7.5115,2.342,3.8877,5.4357,6.1102,5.3519,7.2205,7.5316,12.1441,7.2828,6.1622
471,09:30:25.630,8.7221,3.2367,-0.099,-3.8178,3.7739,2.1222,2.0593,-0.7393,4.8966,9.2667,2.3027,4.0199,-0.9595,15.2458,1.9874,-1.8499,0.5304,0.2471,0.9221,1.2711,3.4305,3.0379,4.1577,3.8533,2.5363
473,09:30:25.632,7.4641,-0.7058,-7.2121,-11.0507,-0.6572,-2.4511,-1.2541,-3.956,2.4696,6.3681,-2.2201,0.1117,-1.4123,13.7899,-3.643,-6.1748,-2.8248,-5.0186,-4.2126,-2.9433,-0.4056,-1.7344,-2.0367,0.5459,-0.6661
475,09:30:25.634,6.1546,-5.0624,-12.5027,-16.0558,-4.5571,-6.378,-4.2071,-6.8358,0.3709,3.9435,-5.5733,-2.9073,-0.9889,11.753,-8.3869,-10.1114,-5.8022,-9.495,-8.5061,-6.7698,-3.7744,-6.0306,-5.9284,-2.2974,-3.3674
477,09:30:25.636,3.8711,-9.5703,-16.1882,-19.272,-7.9422,-9.8355,-6.9158,-9.6196,-1.4919,1.2292,-8.1054,-5.6309,-0.2613,7.9447,-12.3039,-13.727,-8.5306,-13.2432,-12.1644,-10.2168,-6.8091,-9.7807,-8.9796,-4.9075,-6.1673
479,09:30:25.638,0.2702,-12.3209,-19.0544,-21.4994,-10.8064,-12.8995,-9.2759,-12.2594,-2.9425,-1.6483,-10.351,-8.568,0.6018,2.7492,-15.6467,-16.9366,-10.9271,-16.4033,-15.3801,-13.1649,-9.5111,-12.9866,-12.3166,-7.4208,-9.0669
481,09:30:25.640,-3.7895,-11.4256,-21.2876,-22.5922,-12.7343,-15.0492,-10.7437,-14.04,-3.4325,-3.4817,-12.1761,-11.2865,1.9836,-1.8777,-18.1516,-19.1111,-12.3704,-18.5832,-17.645,-15.0238,-11.289,-15.2909,-15.3802,-9.4718,-10.901
483,09:30:25.642,-6.6963,-7.0717,-22.4831,-21.7447,-13.1954,-15.5563,-10.7468,-14.114,-2.5537,-3.2181,-12.9324,-12.7904,4.3522,-4.0377,-19.2198,-19.5134,-12.1858,-19.1691,-18.1597,-15.1413,-11.3935,-16.2082,-16.7161,-10.455,-10.2657
485,09:30:25.644,-7.2219,-1.7079,-22.4092,-18.7331,-12.1073,-14.2308,-9.2707,-12.3633,-0.5761,-1.1541,-12.2403,-12.5343,7.5474,-3.4309,-18.605,-18.0346,-10.3808,-18.0658,-16.748,-13.4783,-9.7374,-15.656,-15.6219,-10.1027,-7.0006
487,09:30:25.646,-5.3578,1.8087,-21.3542,-14.492,-9.9886,-11.6822,-6.9917,-9.6662,1.6142,1.2807,-10.437,-10.8933,10.4835,-1.4105,-16.7377,-15.3869,-7.7936,-15.9208,-14.1604,-10.7644,-7.15,-14.0999,-12.7335,-8.7316,-2.5968
489,09:30:25.648,-2.1655,2.2567,-19.6724,-10.3916,-7.5261,-8.8544,-4.7995,-7.2694,3.1586,2.8655,-8.2574,-8.6657,11.6844,0.276,-14.3568,-12.5398,-5.4669,-13.5654,-11.44,-7.9478,-4.7421,-12.1152,-9.1547,-6.9095,1.0086
491,09:30:25.650,1.1346,0.6288,-17.2449,-7.1125,-5.0127,-6.3117,-3.132,-5.8217,3.8546,3.5739,-6.1669,-6.2574,10.3662,0.761,-11.8992,-9.9763,-3.8581,-11.2952,-9.0664,-5.4895,-2.9992,-9.837,-5.3734,-4.8977,3.1242
493,09:30:25.652,3.9166,-0.798,-13.6217,-4.3061,-2.212,-3.9184,-1.7022,-4.9109,4.2145,4.2535,-4.0323,-3.4386,7.1662,0.2739,-9.2703,-7.4709,-2.618,-8.7374,-6.7398,-3.164,-1.477,-6.8863,-1.2095,-2.4241,4.8294
495,09:30:25.654,6.0514,0.0325,-8.7012,-1.2042,1.2359,-1.157,0.1426,-3.5118,4.9314,5.5099,-1.4024,0.1075,3.7584,-0.661,-6.1501,-4.5448,-1.0913,-5.3996,-3.9247,-0.4996,0.6203,-2.8737,3.2891,0.9726,7.775
497,09:30:25.656,7.2175,3.6479,-3.1686,2.5869,5.2352,2.1906,2.7024,-1.0102,6.219,7.0144,1.8851,4.0321,1.5558,-2.0705,-2.5013,-1.1493,0.9441,-1.3498,-0.5569,2.5732,3.516,1.9644,7.1426,5.2762,12.3259
499,09:30:25.658,6.6224,8.4766,1.7503,6.7782,8.9897,5.5651,5.4363,2.0369,7.5615,7.8374,5.2929,7.1511,0.6499,-4.4314,1.158,2.0326,2.9385,2.5738,2.7212,5.4304,6.4215,6.5554,8.8311,9.5613,16.7622
501,09:30:25.660,3.7515,11.6175,4.917,10.5748,11.3465,7.8213,7.1767,4.1303,8.085,7.3636,7.7491,8.1398,0.0339,-7.579,3.9206,3.9454,3.9183,5.1868,4.939,7.073,8.0049,9.4446,7.5519,12.2713,18.3733
503,09:30:25.662,-0.4801,10.9699,5.7333,13.0101,11.5426,8.0523,6.9886,3.9932,7.2795,5.9186,8.3412,6.6007,-1.0838,-9.8152,4.9875,3.9285,3.256,5.6904,5.4528,6.8391,7.4222,9.6562,4.2053,12.195,15.6245
505,09:30:25.664,-3.5696,7.236,4.2154,13.2661,9.8066,6.3941,5.0129,1.7138,5.4906,4.5981,7.0186,3.5697,-2.2387,-8.6529,4.1536,2.2739,1.2378,4.1783,4.372,4.9659,5.0468,7.3788,1.0755,9.486,9.5665
507,09:30:25.666,-2.8984,3.6431,0.8544,10.9526,7.2803,4.0129,2.5114,-1.2521,3.7218,4.426,4.6505,0.8698,-2.088,-3.2051,1.8999,0.053,-1.0886,1.536,2.4293,2.5006,2.2215,3.9257,0.2352,5.8135,3.2076
509,09:30:25.668,2.2339,3.0755,-3.5751,6.2412,5.2262,2.15,0.9527,-3.3542,2.8528,5.4544,2.2855,-0.2812,0.1287,3.8856,-1.0089,-1.709,-2.7241,-1.2059,0.3838,0.5558,0.1837,0.9128,1.9071,3.3061,-0.7058
511,09:30:25.670,9.9087,5.2612,-8.2366,-0.2328,4.1484,1.0805,0.893,-4.3187,2.9409,6.5515,0.2825,-0.1856,3.5851,7.4955,-4.0618,-2.7931,-3.4924,-3.537,-1.5347,-0.4864,-0.8835,-0.7622,4.2747,3.0323,-1.6212
513,09:30:25.672,16.9972,7.1476,-12.4428,-7.5457,3.6178,0.061,1.6739,-5.2028,3.2661,6.2289,-1.77,-0.1752,6.4125,4.0602,-7.1384,-3.7426,-4.0374,-5.5701,-3.6007,-1.0866,-1.7658,-1.3098,5.0947,4.3327,-1.1815
515,09:30:25.674,21.4004,6.3375,-15.7391,-14.5183,2.9487,-1.6447,2.1967,-7.0472,3.0761,3.9727,-4.2251,-1.1427,7.2422,-4.8024,-10.1248,-5.0565,-5.0299,-7.531,-5.9894,-1.8703,-3.1914,-1.5125,3.7481,5.6175,-1.4334
517,09:30:25.676,23.0487,3.8379,-17.8604,-19.7456,1.9919,-3.7896,1.943,-9.6066,2.2561,0.8508,-6.6092,-2.6236,6.1627,-13.0003,-12.5375,-6.5071,-6.4219,-9.2434,-8.2715,-2.8961,-4.9578,-1.8464,1.7554,5.8267,-3.0398
519,09:30:25.678,22.9344,2.868,-18.7481,-22.0466,1.1636,-5.3769,1.1793,-11.6381,1.2113,-1.4151,-7.9489,-3.4789,4.2232,-15.1089,-13.7607,-7.4009,-7.5933,-10.2542,-9.6839,-3.7035,-6.1978,-2.1807,1.1366,5.0978,-5.1642
521,09:30:25.680,21.4812,4.9413,-18.7055,-21.3276,0.6975,-5.9076,0.2273,-12.4808,0.13,-2.2334,-7.97,-3.4761,2.2207,-11.3618,-13.7715,-7.5489,-8.261,-10.5003,-10.0142,-4.1023,-6.5225,-2.3042,2.1755,4.0809,-6.899
523,09:30:25.682,18.0703,7.7593,-18.4329,-19.0432,0.0511,-6.206,-1.2356,-13.0891,-1.4586,-2.9785,-7.7541,-3.9313,0.1749,-7.4695,-13.492,-7.8123,-9.0817,-10.6881,-10.109,-4.7374,-6.7312,-2.5544,2.8839,2.8471,-8.5224
525,09:30:25.684,12.0944,7.5214,-18.6374,-17.4183,-1.7058,-7.7518,-3.9127,-15.1761,-4.1998,-5.7621,-8.855,-6.4867,-2.0702,-9.1385,-14.1419,-9.4434,-11.1132,-11.774,-11.2589,-6.619,-8.161,-3.6779,0.8156,0.7358,-11.1832
527,09:30:25.686,4.2149,3.1609,-19.4161,-17.775,-4.8301,-11.1165,-7.8868,-19.256,-7.9401,-11.1325,-11.6311,-11.1931,-4.0428,-16.5403,-16.0801,-12.7768,-14.5688,-13.9673,-13.9235,-9.9796,-11.2472,-5.9726,-4.5253,-2.6974,-15.4192
529,09:30:25.688,-3.5841,-2.2453,-20.0814,-19.4924,-8.346,-15.1723,-12.0448,-23.7156,-11.361,-17.0081,-14.6263,-15.9985,-4.7188,-24.0946,-18.3392,-16.6484,-18.2019,-16.343,-17.104,-13.6959,-14.8206,-8.706,-11.0475,-6.83,-20.1939
531,09:30:25.690,-9.1431,-4.4139,-19.7981,-20.7333,-10.7053,-17.9542,-14.7007,-26.0099,-12.762,-20.0803,-15.8279,-18.334,-3.4159,-25.5399,-19.441,-19.2254,-20.0986,-17.5793,-19.0969,-16.0086,-16.9473,-10.596,-15.7443,-10.3202,-23.5073
533,09:30:25.692,-11.2997,-1.8297,-18.4894,-20.2722,-11.0539,-18.2942,-14.8774,-24.7918,-11.3273,-18.4376,-14.5585,-17.2455,-0.4546,-19.1246,-18.7167,-19.4572,-19.1805,-17.109,-18.9207,-15.8948,-16.4936,-10.9532,-16.9539,-12.2992,-23.9127
535,09:30:25.694,-10.1611,3.38,-17.0239,-18.5516,-9.823,-16.5975,-12.9756,-20.8437,-7.6839,-12.932,-12.0141,-13.9548,3.1426,-8.1929,-16.8078,-17.7344,-15.9655,-15.5043,-17.011,-13.7458,-13.8874,-10.2862,-15.1743,-13.0307,-21.4151
537,09:30:25.696,-6.6297,8.0207,-16.3911,-16.9466,-8.1094,-14.1642,-10.2209,-16.0695,-3.2763,-6.1583,-9.9462,-10.4552,6.5003,2.4512,-14.9225,-15.2505,-11.9289,-13.7693,-14.6028,-10.7753,-10.4724,-9.7182,-12.0944,-13.3094,-17.0683
539,09:30:25.698,-1.8781,10.6084,-16.703,-16.2122,-6.6029,-11.9724,-7.5487,-11.8313,0.761,-0.3064,-8.9962,-7.7612,9.3327,10.11,-13.7365,-12.8934,-8.2271,-12.3871,-12.5909,-7.9047,-7.3065,-9.8511,-9.1623,-13.384,-11.986
541,09:30:25.700,2.9321,11.6881,-17.0827,-15.864,-5.1693,-10.1489,-5.0402,-8.3055,4.1868,4.0163,-8.4098,-5.5233,11.6577,14.572,-13.0466,-10.7792,-5.0393,-11.1023,-11.0251,-5.257,-4.6031,-10.2557,-6.9502,-12.7097,-6.8263
543,09:30:25.702,6.8946,12.3555,-16.5051,-14.9722,-3.323,-8.3373,-2.2799,-5.1037,7.3424,7.2844,-7.1631,-3.0076,13.3488,16.2853,-12.2845,-8.6242,-1.9319,-9.4626,-9.4911,-2.5341,-2.0734,-10.0034,-5.3449,-10.7456,-1.9511
545,09:30:25.704,9.654,13.2743,-14.6242,-13.1771,-0.8593,-6.2355,0.9679,-2.0485,10.4813,9.9652,-5.0242,-0.0544,14.1315,15.2838,-11.0809,-6.2628,1.4195,-7.3245,-7.6733,0.4064,0.5293,-8.5427,-3.8736,-7.7283,2.3387
547,09:30:25.706,11.4578,14.8906,-11.7853,-10.7251,2.0324,-3.7323,4.4844,0.7697,13.4295,12.1229,-2.4622,2.9523,13.8996,11.9092,-9.2988,-3.7398,4.9285,-4.8049,-5.4819,3.426,3.2673,-6.0374,-1.8909,-4.4694,5.8935
549,09:30:25.708,12.7566,17.5657,-8.4915,-7.8026,5.0416,-0.8328,7.7917,3.3386,15.7351,13.7642,0.1115,5.6705,12.8025,7.6597,-6.8389,-1.1498,8.2675,-2.0112,-2.9125,6.3146,6.1217,-3.067,1.0826,-1.5283,8.8294
551,09:30:25.710,13.6991,20.8464,-5.1727,-4.3497,7.8404,2.2216,10.3875,5.6994,16.9791,15.0728,2.5983,7.9783,10.9764,4.5073,-3.793,1.324,11.0437,0.8809,-0.1273,8.8379,8.9069,-0.2658,4.8273,1.1082,11.2579
553,09:30:25.712,14.0744,23.0018,-2.4746,-0.6885,9.906,4.7618,11.7908,7.5399,16.9632,16.1384,4.7241,9.6024,8.4024,3.3414,-0.8366,3.2065,12.7846,3.2929,2.2849,10.5588,11.0612,1.7361,8.2572,3.4569,12.8639
555,09:30:25.714,13.7403,22.1231,-1.3686,2.0557,10.5411,5.9075,11.6134,8.1488,15.7772,16.7047,5.7172,9.9439,5.2326,3.4829,0.8551,3.8326,13.0108,4.3093,3.4185,10.8828,11.8088,2.3306,10.0652,4.9538,12.9785
557,09:30:25.716,12.9667,17.9725,-2.5045,2.6654,9.3833,5.2315,9.8479,7.075,13.8304,16.4778,4.8538,8.5712,2.1828,3.8184,0.4543,2.9033,11.5987,3.3957,2.7334,9.5544,10.8051,1.2597,9.721,4.8121,11.2803
559,09:30:25.718,12.2467,12.3705,-5.3081,1.0885,6.957,3.2409,7.1309,4.8173,11.7809,15.6775,2.334,5.8615,0.3114,4.0634,-1.639,0.9636,9.1108,1.1034,0.6928,7.1349,8.6487,-0.9617,7.8475,3.0301,8.3977
561,09:30:25.720,11.8248,7.4841,-7.9517,-1.2546,4.5441,1.099,4.5539,2.6489,10.2738,15.058,-0.6131,2.9587,0.2002,4.6953,-3.8855,-0.8136,6.6045,-1.1065,-1.4088,4.8149,6.5986,-3.1232,5.634,0.7726,5.6372
563,09:30:25.722,11.5339,4.0466,-8.5474,-2.6128,3.315,-0.1784,3.0161,1.6519,9.6086,15.2553,-2.6229,0.9995,1.4002,5.9804,-4.7238,-1.4324,4.9558,-1.9031,-2.3745,3.6015,5.6699,-4.0574,3.9957,-0.5319,4.0048
565,09:30:25.724,11.0829,1.6585,-6.5566,-2.2894,3.5051,-0.2701,2.658,1.9681,9.6145,16.1953,-3.1518,0.3988,2.8415,7.5885,-3.6892,-0.7068,4.3213,-1.0186,-1.9051,3.6467,5.9889,-3.4398,3.3186,-0.4998,3.5093
567,09:30:25.726,10.3566,0.5087,-3.0933,-0.8275,4.4101,0.568,2.8876,2.9886,9.8348,17.2337,-2.577,0.8221,3.8014,9.1948,-1.5364,0.8197,4.2344,0.7722,-0.5579,4.344,6.9805,-1.9135,3.7481,-0.059,3.4384
569,09:30:25.728,9.3711,1.8152,0.0809,0.9402,5.1042,1.9154,2.9289,4.0836,9.8115,17.7848,-1.596,1.6353,4.3422,10.9169,0.5597,2.4234,4.1338,2.4449,0.9023,4.9702,8.0267,-0.4941,5.3041,-0.3693,3.2069
571,09:30:25.730,8.1012,5.9393,1.8116,2.6358,5.0963,3.3465,2.346,4.9562,9.2131,17.6513,-0.7629,2.2294,4.7721,12.7001,1.8174,3.5858,3.7175,3.4061,1.9863,5.1422,8.8184,0.1072,7.5445,-1.615,2.8033
573,09:30:25.732,6.5579,10.5051,1.9697,4.0778,4.3774,4.3384,1.1359,5.3785,7.8103,16.7751,-0.5049,2.0719,4.9057,13.4757,2.0333,3.9832,2.8638,3.5325,2.4469,4.7418,9.1774,-0.3117,9.3652,-2.9845,2.4494
575,09:30:25.734,4.9932,11.4522,1.0051,4.7325,3.0786,4.3588,-0.5126,4.9429,5.5067,14.9425,-1.1776,0.8169,4.1391,11.5756,1.3236,3.3989,1.4419,2.8609,2.0941,3.6614,8.8356,-1.6322,9.5288,-3.7496,2.066
577,09:30:25.736,3.7398,6.6166,-0.5949,3.9512,1.2934,3.2563,-2.4303,3.3761,2.4891,11.9937,-2.7883,-1.399,2.2648,6.375,-0.062,1.8423,-0.6059,1.4666,0.8796,1.8318,7.6097,-3.5686,7.5717,-4.1122,1.32
579,09:30:25.738,2.6606,-1.8456,-2.4278,1.8296,-0.7781,1.5155,-4.4604,1.0677,-0.6998,8.3125,-4.7536,-3.8655,-0.0832,-0.6478,-1.7395,-0.2939,-3.0117,-0.405,-0.8788,-0.5204,5.7521,-5.6376,4.1322,-4.8428,0.2275
581,09:30:25.740,0.9501,-8.9395,-4.0788,-0.5359,-2.6868,-0.0343,-6.3447,-0.9587,-3.3519,4.8959,-6.2375,-5.7284,-2.0554,-6.8411,-3.2633,-2.3653,-5.1605,-2.3057,-2.5608,-2.8106,3.9425,-7.1831,0.361,-6.1776,-0.4766
583,09:30:25.742,-2.1137,-10.7822,-5.1914,-1.9516,-3.8777,-0.8118,-7.6846,-1.7753,-4.9271,2.7829,-6.8527,-6.5868,-3.564,-10.4516,-4.3523,-3.8428,-6.4224,-3.8015,-3.6343,-4.3873,2.8406,-7.6353,-2.8531,-7.2832,0.2004
585,09:30:25.744,-6.0286,-7.1082,-5.6742,-2.1855,-3.9892,-0.7492,-8.0364,-1.2436,-5.2284,2.4007,-6.8726,-6.5896,-5.3055,-11.6531,-4.9951,-4.5175,-6.5009,-4.677,-3.9286,-4.8647,2.6954,-6.8099,-5.0072,-6.927,2.5631
587,09:30:25.746,-8.8926,-0.378,-5.7336,-1.876,-3.0045,-0.0228,-7.0993,0.0443,-4.312,3.4683,-6.6389,-5.9617,-7.6447,-11.6036,-5.2657,-4.3698,-5.4659,-4.8889,-3.4997,-4.1772,3.404,-4.9523,-5.6191,-4.6499,5.7385
589,09:30:25.748,-8.7449,6.7329,-5.6761,-1.4434,-1.1871,1.2842,-4.9169,1.4157,-2.342,5.4168,-5.9503,-4.653,-9.6943,-10.8629,-5.1275,-3.4036,-3.5614,-4.4382,-2.3692,-2.4469,4.8087,-2.5341,-4.2299,-1.2312,8.1924
591,09:30:25.750,-5.2618,12.6711,-5.7564,-0.4757,1.0324,3.1056,-1.9619,2.5876,0.4058,7.776,-4.3341,-2.6344,-9.8705,-9.016,-4.5693,-1.7612,-1.1124,-3.4498,-0.5794,0.0375,6.7589,-0.0661,-1.0206,1.9875,8.8358
593,09:30:25.752,-0.0516,16.682,-6.211,1.5501,3.1402,5.0797,1.0482,3.5526,3.4785,10.2182,-1.9236,-0.4072,-7.4769,-5.6758,-3.9108,0.0588,1.4106,-2.356,1.5076,2.7365,8.9001,1.963,2.8077,4.211,7.7564
595,09:30:25.754,4.8207,18.4481,-7.2603,4.144,4.6962,6.5662,3.5639,4.2317,6.349,12.4635,0.2846,1.1421,-3.5278,-1.4159,-3.7501,1.3383,3.4331,-1.7779,3.1934,4.9681,10.6233,3.179,5.7167,5.6842,5.9837
597,09:30:25.756,8.5506,18.5417,-8.905,5.8117,5.5589,7.1102,5.5012,4.4134,8.6601,14.2986,1.3337,1.5933,0.1976,2.4602,-4.4366,1.6584,4.5504,-2.0401,3.9092,6.2869,11.4088,3.5278,7.0927,7.1889,4.5587
599,09:30:25.758,11.8098,18.5256,-10.7764,5.3157,5.9239,6.789,7.0621,3.9601,10.2954,15.5917,1.343,1.531,2.8211,4.8416,-5.6774,1.2204,4.7394,-2.8599,3.655,6.7365,11.1923,3.3363,7.6662,9.0887,3.7451
601,09:30:25.760,15.4227,19.5858,-12.4132,2.7064,6.0023,5.9479,8.1914,2.8868,11.1305,16.1101,1.2913,1.9346,4.8461,5.2898,-6.882,0.497,4.1811,-3.7011,2.8163,6.5986,10.2523,2.9758,8.4718,10.807,3.0172
603,09:30:25.762,19.1096,20.8531,-13.7816,-1.0451,5.63,4.6368,8.2891,1.1907,10.7884,15.3599,1.6771,2.9793,6.9971,3.8286,-7.9396,-0.4332,2.8654,-4.476,1.5345,5.8838,8.7313,2.3733,9.4563,11.191,1.744
605,09:30:25.764,21.631,19.749,-15.3379,-5.1812,4.3361,2.522,6.6563,-1.2169,8.8588,12.881,1.7248,3.6921,8.9647,0.7335,-9.4373,-2.0236,0.5335,-5.7107,-0.5383,4.2396,6.4444,0.9935,9.3744,9.4505,-0.0949
607,09:30:25.766,21.9749,14.6344,-17.325,-9.5224,1.9499,-0.5156,3.3399,-4.2292,5.5063,8.9288,0.2865,3.0191,9.6838,-3.2868,-11.8809,-4.5966,-2.8423,-7.827,-3.6804,1.5073,3.3092,-1.4952,7.1847,5.8858,-1.7938
609,09:30:25.768,20.1791,7.0388,-19.013,-13.7012,-0.8898,-3.82,-0.5499,-7.2331,1.7823,4.7815,-2.5262,1.151,8.8029,-7.0138,-14.7393,-7.632,-6.5817,-10.312,-7.3637,-1.7,-0.1201,-4.5177,3.4126,1.7885,-2.4603
611,09:30:25.770,17.0602,0.7657,-18.9431,-16.5507,-3.0107,-6.2305,-3.5489,-9.2964,-0.9096,2.0715,-5.0226,-0.4728,7.4299,-9.2517,-16.5305,-9.9356,-9.514,-11.8458,-10.3162,-4.1983,-2.7818,-6.7373,-0.0475,-1.4251,-1.6925
613,09:30:25.772,13.4673,-1.4214,-16.2317,-16.8133,-3.6357,-7.0187,-4.979,-9.837,-1.8606,1.5874,-5.516,-0.5758,7.0696,-9.5404,-16.0683,-10.6305,-10.8395,-11.4348,-11.486,-5.1571,-3.9182,-7.0996,-1.4905,-3.1508,0.1697
615,09:30:25.774,9.9953,-0.0382,-11.6866,-14.5457,-3.0442,-6.5023,-5.3856,-9.1223,-1.6223,2.7126,-4.0814,0.6913,7.9211,-8.2132,-13.6171,-9.9297,-10.7753,-9.3988,-10.9286,-4.8003,-3.7233,-5.7838,-0.699,-3.8528,2.3172
617,09:30:25.776,7.2105,2.216,-7.4672,-11.4788,-2.2624,-5.6824,-5.8433,-8.0577,-1.4841,4.0795,-2.4441,2.0307,8.5765,-5.806,-10.7156,-8.8567,-10.2846,-7.1405,-9.6748,-4.1201,-3.105,-4.0655,1.1975,-4.4898,3.9111
619,09:30:25.778,5.6947,3.3706,-5.477,-9.6612,-2.1085,-5.3345,-6.8858,-7.4865,-2.3393,4.7224,-2.1001,2.4255,7.5293,-2.7495,-8.8507,-8.2502,-10.1698,-5.9265,-8.7577,-3.9224,-2.8264,-3.2097,2.8774,-5.6676,4.3478
621,09:30:25.780,5.5934,3.6207,-5.9952,-9.703,-2.5738,-5.5066,-8.1454,-7.699,-4.0128,4.5563,-2.8078,2.0654,4.7435,0.185,-8.3392,-8.1238,-10.471,-5.9286,-8.4289,-4.2164,-2.946,-3.4986,3.7253,-7.2277,3.362
623,09:30:25.782,6.2196,4.1319,-7.749,-10.4025,-3.0681,-5.7866,-8.9211,-8.5026,-5.5947,3.9126,-3.0796,1.8393,1.5028,1.5459,-8.4026,-7.9247,-10.6949,-6.3718,-8.2371,-4.4819,-3.0423,-4.2614,3.8469,-8.4932,1.1486
625,09:30:25.784,6.3819,5.2004,-9.129,-10.0009,-3.0971,-5.827,-8.9028,-9.549,-6.3079,2.9615,-1.939,2.1795,-1.1322,0.0407,-8.0785,-7.2118,-10.4552,-6.4044,-7.6405,-4.3375,-2.7958,-4.675,3.6286,-8.8229,-1.5513
627,09:30:25.786,5.2724,6.0664,-9.2831,-7.6783,-2.6192,-5.5278,-8.2924,-10.4938,-6.0448,1.7667,0.116,2.6494,-3.3045,-3.9335,-6.9355,-5.9794,-9.7814,-5.7211,-6.4296,-3.8353,-2.237,-4.431,3.4572,-8.0118,-3.6967
629,09:30:25.788,3.0546,6.1844,-8.3295,-3.9863,-1.8941,-4.9111,-7.4258,-11.005,-5.2426,0.6698,1.8302,2.5803,-5.6719,-7.9698,-5.1375,-4.4975,-8.922,-4.5403,-4.7399,-3.2404,-1.5593,-3.7737,3.6203,-6.3802,-4.5864
631,09:30:25.790,0.5988,5.9399,-6.9928,-0.2674,-1.2565,-4.1043,-6.5408,-10.9048,-4.4672,0.1835,2.4474,1.79,-8.0936,-9.5299,-3.244,-3.1305,-8.0978,-3.3338,-2.9785,-2.7919,-0.9436,-3.1963,4.1042,-4.6506,-4.4104
633,09:30:25.792,-1.2858,5.8887,-6.2546,2.0773,-1.118,-3.4997,-5.9385,-10.4272,-4.1587,0.32,2.009,0.5147,-9.4699,-8.4472,-2.1176,-2.3754,-7.5451,-2.7154,-1.8327,-2.7627,-0.646,-3.2433,4.3914,-3.6808,-4.112
635,09:30:25.794,-2.3496,5.7994,-7.0516,2.0334,-1.9643,-3.6941,-6.0916,-10.1859,-4.5586,0.266,0.6949,-1.1392,-8.9398,-7.3167,-2.7169,-2.8089,-7.616,-3.3348,-2.0809,-3.5377,-1.0496,-4.4041,3.6897,-4.0571,-4.567
637,09:30:25.796,-2.7841,5.0041,-9.7624,-0.6771,-4.0222,-5.0056,-7.2898,-10.6585,-5.6031,-0.8986,-1.5775,-3.3141,-6.872,-9.0097,-5.4815,-4.6623,-8.5547,-5.4838,-4.0325,-5.3336,-2.3571,-6.8175,1.6267,-5.7042,-5.834
639,09:30:25.798,-2.7861,3.5882,-13.7137,-5.3095,-6.8231,-7.0124,-9.1396,-11.6225,-6.8021,-3.0376,-4.6897,-5.8789,-4.3929,-13.662,-9.7095,-7.3724,-10.0825,-8.6529,-7.0483,-7.7692,-4.1727,-9.8898,-1.2401,-7.8471,-7.1847
641,09:30:25.800,-2.2777,2.6197,-17.3899,-10.3108,-9.2727,-8.7207,-10.6251,-12.186,-7.3855,-4.6841,-7.8091,-8.0486,-2.1439,-18.1922,-13.751,-9.7577,-11.3622,-11.6551,-9.7983,-9.8955,-5.5613,-12.3556,-3.7318,-9.4851,-7.7881
643,09:30:25.802,-0.9871,2.8452,-19.5,-14.2017,-10.3988,-9.3126,-10.8753,-11.4727,-6.7906,-4.138,-9.8283,-8.8413,0.0585,-18.8393,-16.1431,-10.8567,-11.5786,-13.4396,-11.2088,-10.8584,-5.7082,-13.0368,-4.9674,-10.0508,-7.2565
645,09:30:25.804,1.2034,3.4299,-19.9982,-16.4358,-10.1361,-8.7376,-9.9107,-9.3107,-5.1154,-0.9085,-10.4314,-8.0087,2.2575,-14.2205,-16.689,-10.6477,-10.6271,-13.8734,-11.2161,-10.5874,-4.5653,-11.7668,-5.0124,-9.6928,-5.5802
647,09:30:25.806,3.886,2.4713,-19.9819,-17.3683,-9.3485,-7.5852,-8.5852,-6.308,-3.0869,3.8943,-10.4702,-6.4137,3.5261,-6.1865,-16.3808,-9.9103,-9.2037,-13.6858,-10.5757,-9.7923,-2.8281,-9.6108,-4.6832,-8.9824,-2.84
649,09:30:25.808,6.0596,-1.124,-20.525,-17.4434,-9.0569,-6.4928,-7.8064,-3.3903,-1.5635,8.4527,-11.063,-5.3927,2.6381,1.8069,-16.2669,-9.4233,-8.2163,-13.6606,-10.0067,-9.2995,-1.3222,-8.119,-4.8168,-8.4196,0.6701
651,09:30:25.810,6.6043,-6.482,-21.6571,-16.6411,-9.6424,-5.7713,-7.8638,-1.3505,-1.0393,11.3974,-12.3902,-5.7273,-0.3884,6.9203,-16.4816,-9.3731,-8.1408,-13.9503,-9.6299,-9.4398,-0.4721,-8.2396,-5.7223,-8.2176,4.0078
653,09:30:25.812,5.0896,-11.4886,-22.4606,-14.8038,-10.7134,-5.4873,-8.4479,-0.692,-1.5149,12.2504,-13.5226,-7.1677,-3.8166,8.0219,-16.3509,-9.4715,-8.8758,-14.1272,-9.1714,-10.0077,-0.2779,-9.7529,-7.1225,-8.3881,5.6436
655,09:30:25.814,2.194,-14.3482,-21.9341,-12.2145,-11.5475,-5.6121,-9.1012,-1.5593,-2.6409,11.2071,-13.3597,-8.7721,-5.5888,5.5438,-15.1975,-9.3908,-10.0154,-13.6772,-8.4375,-10.5924,-0.5508,-11.5181,-8.3661,-8.787,4.4276
657,09:30:25.816,-0.8324,-14.2685,-19.5625,-9.4638,-11.544,-5.915,-9.4914,-3.5816,-3.8585,8.8901,-11.5228,-9.5729,-5.1317,0.8973,-12.8257,-8.9059,-11.0966,-12.2802,-7.3898,-10.7976,-0.9885,-12.1991,-8.6864,-9.0062,0.6812
659,09:30:25.818,-3.2524,-11.1288,-15.2436,-6.7644,-10.4012,-5.8697,-9.3692,-5.8844,-4.5258,6.263,-8.3651,-9.0462,-3.5783,-4.1694,-9.367,-7.7638,-11.6824,-9.7692,-5.9033,-10.2811,-1.1409,-11.0146,-7.5542,-8.4396,-3.8255
661,09:30:25.820,-5.2837,-5.3704,-9.2239,-3.84,-8.2068,-4.9984,-8.5846,-7.5671,-4.2135,4.3397,-4.5024,-7.2861,-2.3068,-8.3367,-5.1063,-5.7916,-11.5054,-6.2139,-3.8245,-8.9146,-0.6258,-8.2266,-5.0921,-6.7669,-7.2012
663,09:30:25.822,-7.2915,1.4216,-2.4888,-0.7894,-5.555,-3.447,-7.3344,-8.3433,-3.0791,3.6078,-0.6859,-4.9702,-1.6336,-11.2981,-0.7365,-3.3267,-10.7291,-2.2552,-1.4427,-7.0743,0.4451,-5.1228,-2.1627,-4.4632,-8.7779
665,09:30:25.824,-8.6877,6.5174,3.0664,1.2671,-3.4042,-2.0344,-6.2397,-8.6072,-1.8579,3.7615,2.0468,-3.046,-1.0902,-13.4968,2.4899,-1.3206,-9.9483,0.8882,0.3462,-5.5869,1.4075,-3.2937,0.1924,-2.6326,-9.0972
667,09:30:25.826,-8.1311,7.793,5.6141,1.0709,-2.4379,-1.462,-5.866,-8.7135,-1.2392,4.2307,2.7338,-2.1085,-0.5877,-15.0452,3.4734,-0.6135,-9.6537,2.2265,0.7542,-5.0552,1.689,-3.4472,1.5856,-2.0882,-8.6917
669,09:30:25.828,-5.211,6.0571,5.0823,-0.9814,-2.3586,-1.444,-6.0449,-8.2777,-1.151,4.9927,1.4851,-1.8629,-0.7322,-15.0244,2.4893,-0.9445,-9.5932,2.0599,0.1116,-5.1246,1.5788,-4.657,2.5193,-2.5549,-7.2226
671,09:30:25.830,-1.7263,5.1681,3.7266,-2.3846,-1.9484,-0.8312,-5.8509,-6.4792,-0.8129,6.597,-0.015,-1.2779,-1.8837,-12.262,1.4869,-0.8978,-8.8458,2.0442,-0.0892,-4.6211,2.1429,-4.9193,3.6888,-2.9199,-4.0843
673,09:30:25.832,-0.6088,8.8857,4.4291,-0.5494,-0.1137,1.2201,-4.4982,-3.2223,0.3234,9.1927,0.4301,0.499,-3.3907,-7.0145,2.6492,0.8475,-6.7685,3.8248,1.5119,-2.6732,4.1445,-2.8109,5.1131,-2.3619,0.2611
675,09:30:25.834,-3.0538,17.0655,7.9893,4.492,2.9883,4.2382,-2.2976,0.1775,1.7259,11.7216,3.5266,3.2415,-4.2577,-1.6046,6.3208,4.1162,-3.8909,7.4115,4.7176,0.2691,7.0544,1.1602,6.1485,-1.1568,3.9814
677,09:30:25.836,-6.8107,25.1351,12.1129,9.7005,5.9171,6.7286,-0.5606,1.806,2.1042,12.503,7.5416,5.679,-4.5117,1.093,10.4098,7.201,-1.6822,10.9765,7.7671,2.6738,9.3133,4.8354,6.3993,-0.2824,5.2532
679,09:30:25.838,-7.8195,27.7782,13.3119,11.6397,7.1262,7.4945,-0.423,0.8257,0.7228,10.8407,9.5903,6.4943,-5.3991,0.0655,12.0453,8.3266,-1.2833,12.3767,8.8356,3.2731,9.6849,6.1154,6.3679,-0.3087,3.946
681,09:30:25.840,-3.8692,23.4023,9.9323,9.4226,6.1966,6.5774,-1.7987,-1.7431,-1.7022,7.8887,8.0382,5.3296,-7.8993,-2.9582,9.9492,7.1298,-2.4968,10.9057,7.5054,2.1236,8.3004,4.4944,6.9108,-0.8719,1.7174
683,09:30:25.842,3.4223,15.0683,3.347,4.9554,3.9482,4.8966,-3.5707,-4.0297,-3.6042,5.6596,3.6972,2.8801,-11.2342,-5.0942,5.2514,4.6936,-4.1094,7.5966,4.7814,0.3139,6.3294,1.0686,8.0507,-1.2962,0.3226
685,09:30:25.844,10.3733,7.2361,-3.6345,0.5607,1.5115,3.1815,-4.7459,-5.0366,-4.0635,5.1722,-1.202,0.1497,-13.2292,-4.7296,0.174,2.318,-5.1332,4.0218,1.9022,-1.2121,4.7664,-2.6886,8.637,-1.5286,-0.0346
687,09:30:25.846,14.7982,1.917,-9.1796,-3.0579,-0.4988,1.5116,-5.2477,-5.2037,-3.5096,5.8055,-4.974,-2.2431,-12.2288,-2.4086,-3.8175,0.5184,-5.5398,1.0634,-0.571,-2.3196,3.7514,-5.9363,7.4706,-2.1955,-0.4899
689,09:30:25.848,17.5458,-1.9487,-13.1537,-6.3171,-1.9018,-0.1142,-5.5257,-5.2884,-2.8149,6.55,-7.37,-4.0851,-8.4394,0.3896,-6.5497,-0.7517,-5.7303,-1.1371,-2.5147,-3.195,3.0723,-8.368,4.7403,-3.6914,-1.7092
691,09:30:25.850,20.5951,-5.8869,-15.8605,-8.8625,-2.3742,-1.0979,-5.5954,-4.9974,-1.8954,7.5807,-8.8647,-5.1734,-3.3546,2.9261,-8.2447,-1.2611,-5.5411,-2.4049,-3.5232,-3.5308,3.0089,-9.5624,2.0968,-5.411,-2.5698
693,09:30:25.852,24.1683,-9.4813,-16.7575,-9.0977,-1.3579,-0.4986,-4.7726,-3.0924,0.3836,10.1357,-9.5775,-5.1847,1.7556,5.4799,-8.6293,-0.344,-4.144,-2.1827,-2.8931,-2.568,4.3012,-8.8925,1.1355,-6.0899,-0.9293
695,09:30:25.854,26.2102,-10.9066,-14.8084,-5.9305,1.3135,1.9501,-2.4761,1.0572,4.691,14.696,-9.1288,-4.0061,6.4007,8.1702,-7.1513,2.2749,-1.0762,-0.1093,-0.4287,-0.032,7.1901,-6.1891,1.8563,-4.9299,4.2003
697,09:30:25.856,24.6376,-9.4368,-9.9117,-0.5035,4.8726,5.2645,0.8464,6.2407,9.7995,19.5802,-7.3258,-2.0585,10.125,9.8801,-3.855,5.7393,2.8128,3.2823,3.0056,3.1978,10.7159,-2.2499,2.7265,-2.3087,11.3103
699,09:30:25.858,19.5896,-6.6519,-3.5125,4.4613,7.9715,7.8515,3.8011,9.9861,13.0543,21.7733,-4.5962,-0.1222,11.9398,8.6048,0.3082,8.4777,5.7248,6.7437,6.0216,5.6072,13.2453,1.5875,2.242,0.6129,17.2937
701,09:30:25.860,13.1842,-4.747,2.4239,7.133,9.6919,8.7656,5.1343,10.4825,12.5227,19.3731,-1.6189,1.2191,11.0529,2.9892,4.145,9.482,6.3576,9.2625,7.8261,6.2948,13.7839,4.4329,0.3382,2.8707,19.7283
703,09:30:25.862,7.408,-3.8918,6.8863,7.9873,10.1674,8.3011,4.718,7.9445,8.6901,13.2309,1.2674,1.9622,8.0224,-6.3202,7.0524,9.0954,4.9683,10.7322,8.6845,5.6423,12.7174,6.3203,-1.6883,4.262,18.3968
705,09:30:25.864,2.8136,-1.8263,10.0795,8.5504,10.1841,7.3977,3.4782,4.1649,3.9703,6.2003,4.0811,2.5523,4.6188,-16.6476,9.0945,8.4778,2.9972,11.6399,9.269,4.7537,11.2579,7.7216,-2.4392,5.114,14.8279
707,09:30:25.866,-0.6622,3.6445,12.3421,9.0829,10.2488,6.6181,2.4549,0.8929,0.5937,0.8723,6.7036,3.4414,2.2488,-24.6187,10.4036,8.3718,1.7215,12.2341,9.7256,4.3483,10.2663,8.7625,-1.4778,5.714,10.6479
709,09:30:25.868,-2.276,11.9468,13.1719,8.0445,10.1315,5.7859,1.9877,-1.2921,-0.9542,-1.9675,8.6312,4.775,0.7564,-27.9229,10.7527,8.4931,1.329,12.1706,9.5373,4.2603,9.6823,9.0478,0.6644,5.9982,6.4952
711,09:30:25.870,-0.6698,19.8572,11.5843,3.9668,9.2728,4.5125,1.7131,-2.7338,-1.5779,-2.9839,9.361,6.396,-0.9087,-26.3384,9.809,8.0722,1.1834,10.9778,8.2448,3.8937,8.988,8.1753,3.1661,5.6262,2.3425
713,09:30:25.872,4.3233,24.3982,7.3753,-2.515,7.4839,2.8583,1.1384,-3.7341,-2.0918,-2.9151,8.9197,8.0037,-2.9962,-21.3584,7.6682,6.8053,0.7414,8.7118,6.0968,2.9501,7.9949,6.2122,5.4146,4.214,-1.5309
715,09:30:25.874,10.5136,25.4158,1.7753,-8.8304,5.1469,1.356,0.0929,-4.078,-2.4229,-1.813,7.8288,9.2491,-4.4251,-14.7659,4.9586,5.152,0.0544,6.025,3.8862,1.6285,7.0463,3.5832,7.0119,1.5648,-4.228
717,09:30:25.876,14.5446,25.1309,-3.3247,-12.5933,2.7834,0.4419,-1.3043,-3.4442,-2.1831,0.5362,6.5136,9.7464,-4.1387,-7.388,2.3721,3.7684,-0.534,3.6073,2.2226,0.2423,6.528,0.6246,7.6525,-2.1302,-4.9611
719,09:30:25.878,14.4661,25.3065,-6.8018,-13.3293,0.5616,-0.0039,-2.9203,-2.0282,-1.5718,3.8462,4.8752,9.1321,-2.6017,0.8065,0.1608,2.8117,-0.9468,1.6465,1.0819,-1.1706,6.3569,-2.5705,7.2191,-6.2282,-3.9391
721,09:30:25.880,11.1,25.2317,-8.9164,-12.1743,-1.7022,-0.4984,-4.718,-0.586,-1.3301,7.2175,2.5728,7.2518,-1.4303,9.3744,-1.858,1.8784,-1.4849,-0.138,0.0524,-2.8003,6.0471,-5.8497,5.9694,-9.8642,-2.3543
723,09:30:25.882,6.9043,22.6699,-10.5347,-10.2776,-4.0966,-1.3766,-6.6054,0.1178,-1.8368,9.7005,-0.2823,4.3753,-1.5172,16.3383,-3.8415,0.5629,-2.4317,-1.9883,-1.0963,-4.7111,5.242,-8.6894,4.4877,-12.3761,-1.4202
725,09:30:25.884,3.6589,16.5383,-11.8536,-7.8136,-6.2665,-2.4219,-8.2804,-0.1863,-2.5985,10.7898,-2.8417,1.2197,-2.0086,18.8543,-5.5397,-1.0233,-3.6832,-3.6936,-2.1536,-6.6276,4.1052,-10.3365,3.3493,-13.5474,-1.4421
727,09:30:25.886,1.3041,8.2304,-12.0352,-4.4413,-7.5916,-3.0894,-9.3392,-1.3047,-2.8778,10.3706,-4.0751,-1.3742,-1.5055,15.306,-6.4264,-2.3223,-4.843,-4.7039,-2.7302,-8.1017,3.155,-10.3314,2.7672,-13.4612,-1.8388
729,09:30:25.888,-1.2105,0.2041,-10.2114,-0.3592,-7.7672,-3.097,-9.6166,-2.9707,-2.7143,8.4175,-3.7229,-2.9864,-0.0465,6.8443,-6.2567,-2.8955,-5.6604,-4.6847,-2.7205,-8.8995,2.7222,-8.9243,2.4901,-12.2581,-1.9871
731,09:30:25.890,-4.2759,-6.3261,-6.848,3.3132,-7.2126,-2.7826,-9.4302,-5.0482,-3.0052,5.0181,-2.7142,-3.9351,0.6511,-3.2237,-5.5053,-2.8863,-6.2998,-3.9879,-2.5004,-9.2311,2.5996,-7.0009,2.0254,-10.2033,-1.8985
733,09:30:25.892,-6.8658,-11.8127,-3.9228,5.1655,-6.8025,-2.8065,-9.3893,-7.297,-4.395,0.7949,-2.5054,-4.9184,-0.8724,-11.5999,-5.1476,-2.8679,-7.098,-3.5022,-2.6399,-9.55,2.2858,-5.5232,1.1093,-7.9231,-1.9885
735,09:30:25.894,-7.1728,-16.5231,-3.4038,4.5284,-7.0023,-3.376,-9.7676,-9.0125,-6.1779,-2.8049,-3.7366,-6.0821,-3.9745,-16.5571,-5.766,-3.1336,-7.9811,-3.8285,-3.2905,-9.9907,1.6735,-4.8174,0.1982,-6.1992,-2.2428
737,09:30:25.896,-3.859,-18.8837,-5.2686,2.1278,-7.1367,-3.6937,-9.9277,-9.0595,-6.5226,-3.8932,-5.3406,-6.3519,-6.398,-17.6617,-6.6715,-3.0722,-8.1086,-4.4228,-3.7234,-9.8912,1.5404,-4.1816,0.5547,-5.1693,-1.7848
739,09:30:25.898,3.045,-16.3788,-7.0633,-0.0935,-5.6168,-2.2924,-8.4641,-6.4857,-3.9421,-1.1577,-5.0652,-3.9479,-6.5687,-14.7049,-5.9981,-1.3416,-6.2268,-3.6267,-2.5476,-7.9733,3.2322,-2.224,3.538,-3.7837,0.5553
741,09:30:25.900,11.9756,-8.3167,-5.7831,-0.0511,-1.2182,1.7909,-4.2567,-1.3303,1.3759,5.1361,-1.2555,1.9959,-5.0684,-7.7064,-2.057,3.0564,-1.6526,0.1008,1.2837,-3.3214,7.5704,2.0668,9.3186,-0.528,5.1142
743,09:30:25.902,20.3456,2.6307,-0.5767,2.9812,5.5602,7.8992,2.2769,5.0311,7.5943,12.9257,5.4923,10.0781,-3.6875,1.8654,4.9977,9.6006,4.8346,6.6221,7.3363,3.5042,13.8162,8.2019,16.0638,4.8759,10.7562
745,09:30:25.904,25.5715,12.0818,6.2879,7.5194,12.3672,13.7724,8.9121,10.4049,12.4759,19.2383,12.3696,17.0501,-3.3116,10.5829,12.7562,16.1007,11.0539,13.7147,13.4984,10.2973,19.7079,14.0633,20.6602,10.5021,15.3404
747,09:30:25.906,26.3051,17.2862,11.2624,10.6475,16.4726,16.9085,12.8741,12.9275,14.6923,21.7693,16.2989,20.0096,-3.0981,14.7946,18.0549,19.9633,14.6331,18.4575,17.1898,14.4359,22.7881,17.1848,20.804,13.3589,16.9424
749,09:30:25.908,23.2243,18.8053,12.4475,10.1327,16.6983,16.2555,12.7676,12.0828,14.2492,20.1656,16.1972,18.5336,-1.6816,13.4499,19.2321,19.9535,14.5411,19.3332,17.1373,14.6617,22.0543,16.5332,16.8106,11.8749,14.9238
751,09:30:25.910,18.7309,19.0638,10.7379,6.1244,14.1014,12.8212,9.5361,8.8701,12.0534,16.0937,13.5132,14.7633,1.2192,9.0703,17.0953,16.9412,11.6902,17.1356,14.1738,11.8749,18.5472,13.1919,11.4357,7.3255,10.1923
753,09:30:25.912,15.5564,19.6826,8.2048,0.8081,10.8228,8.7217,5.564,5.0319,9.2584,11.987,10.5846,11.3679,4.6327,5.4982,13.7531,12.9839,8.0889,13.8835,10.3366,8.2204,14.3933,9.272,7.7399,2.677,4.6643
755,09:30:25.914,15.1231,20.5017,5.7525,-3.6068,8.2918,5.6129,2.7611,1.9895,6.85,9.4253,8.5216,9.4031,7.5167,4.502,10.6307,9.6678,5.3292,10.9647,7.1954,5.3639,11.2344,6.1509,6.9017,-0.0118,0.3835
757,09:30:25.916,16.7473,20.842,2.8175,-6.3709,6.5408,3.9245,1.4121,0.3139,5.4799,8.4524,6.7613,8.095,9.7044,4.7242,7.7796,7.2958,3.7744,8.4575,5.0625,3.6006,9.4667,3.8374,7.8926,-0.9779,-1.2357
759,09:30:25.918,18.1603,20.8502,-0.6408,-7.5803,5.0935,3.3678,0.7191,-0.0056,5.3985,8.315,4.5756,6.46,11.6306,4.0116,5.0221,5.5146,3.0259,6.1413,3.6831,2.4586,8.7686,1.9735,9.0111,-1.662,0.2094
761,09:30:25.920,16.9395,20.9798,-2.5419,-6.4585,4.1594,3.8489,0.195,0.9947,6.4683,8.7471,2.6281,4.7473,13.5065,2.4629,3.2873,4.3994,2.9051,4.7151,3.319,1.8393,9.0363,1.0763,9.4926,-2.6021,4.1527
763,09:30:25.922,11.9612,20.3911,0.0582,-1.0372,4.6266,5.6353,0.2868,3.3788,8.2786,10.3831,2.646,4.0776,15.0983,2.6994,4.2493,4.6077,3.7423,5.5233,4.7706,2.2715,10.5575,2.3463,9.6559,-2.7555,9.4109
765,09:30:25.924,4.0803,16.7639,7.7428,9.8017,6.8537,8.6423,1.6142,6.8654,10.2604,13.7999,5.4783,4.8434,16.1914,6.923,8.4412,6.4169,5.6863,8.9408,8.2429,4.0344,13.2886,6.1083,9.8603,-0.8952,14.6047
767,09:30:25.926,-4.3088,8.4555,17.0888,23.9246,9.7336,11.8102,3.8257,10.4022,11.695,18.213,9.7416,5.8783,16.8243,13.9287,13.9935,8.8571,7.9554,13.3088,12.4407,6.3004,16.2226,10.7143,9.7671,2.666,18.4395
769,09:30:25.928,-10.5819,-3.0934,22.8134,36.052,11.2455,13.4726,5.4672,12.4282,11.7305,21.3695,12.6734,5.4573,16.8326,19.4297,17.6503,10.1015,9.0524,15.8484,15.1101,7.4356,17.7515,13.3794,8.7354,6.0153,19.8604
771,09:30:25.930,-13.2703,-13.57,21.893,40.805,10.0262,12.4859,5.0776,11.787,9.6655,21.0432,12.3638,3.0304,15.426,19.6221,17.2308,8.8504,7.8602,14.7917,14.6272,6.2436,16.7812,12.2952,6.6536,7.2331,18.2806
773,09:30:25.932,-12.5898,-18.8686,15.6273,36.0731,6.3703,9.0261,2.3751,8.5265,5.4988,16.8628,9.0614,-0.2485,11.72,14.5157,13.097,5.31,4.5276,10.6083,11.0733,2.8754,13.505,7.9347,4.0601,5.8574,13.9424
775,09:30:25.934,-9.7739,-18.1853,7.795,23.8214,1.748,4.3161,-1.6177,3.8537,0.295,10.7378,4.3881,-2.7336,5.9561,7.7525,7.3007,0.8307,0.2858,5.2165,5.8455,-1.453,9.1273,2.356,1.466,2.8314,8.1051
777,09:30:25.936,-5.8762,-14.2038,1.1293,8.1375,-2.4722,-0.3345,-5.4775,-0.7107,-4.1524,5.4172,-0.3713,-3.8424,0.062,3.1147,1.5794,-3.2823,-3.5329,0.2283,0.4258,-5.4864,4.9256,-2.5609,-1.1262,-0.6347,2.6426
779,09:30:25.938,-1.1845,-10.4483,-4.2463,-7.2173,-5.7553,-4.2125,-8.3179,-4.2269,-6.3321,2.4572,-4.9495,-4.3046,-3.3472,1.0992,-3.6245,-6.5231,-6.279,-3.9206,-4.3739,-8.6204,1.583,-6.1245,-3.8347,-3.8877,-0.9184
781,09:30:25.940,4.2696,-8.5699,-9.3992,-19.8023,-8.1347,-7.143,-10.0077,-6.5927,-5.9924,1.3533,-9.3111,-5.0506,-2.8504,-1.2704,-8.4465,-8.9565,-8.0028,-7.4091,-8.2226,-10.8015,-0.7868,-8.4554,-6.2069,-6.7247,-2.2635
783,09:30:25.942,9.8254,-7.9043,-14.4811,-28.2579,-9.671,-9.095,-10.8341,-8.1651,-4.2844,0.4142,-12.7735,-6.1481,0.6622,-7.3923,-12.5163,-10.6267,-9.0207,-10.1533,-10.8276,-12.1302,-2.2952,-9.6954,-7.2761,-8.964,-2.3249
785,09:30:25.944,14.0768,-6.9775,-18.4527,-32.1773,-10.3909,-10.06,-11.1873,-9.2806,-2.9243,-1.6173,-14.3164,-6.9043,4.6101,-17.7286,-14.9859,-11.4296,-9.6339,-11.7817,-11.9844,-12.7546,-3.129,-9.8827,-6.4708,-10.4067,-2.426
787,09:30:25.946,15.7747,-4.9285,-20.4602,-32.4185,-10.5539,-10.2403,-11.4583,-10.0945,-3.0322,-4.6547,-13.6647,-6.7688,6.5146,-29.1294,-15.4813,-11.4476,-10.1218,-12.2575,-11.944,-12.9825,-3.6,-9.3355,-4.3257,-11.0536,-3.273
789,09:30:25.948,14.7813,-1.6953,-20.6987,-30.8731,-10.5873,-10.094,-11.9056,-10.6817,-4.5298,-7.6385,-11.6868,-5.8604,5.4952,-37.2178,-14.585,-11.0851,-10.6979,-12.0726,-11.379,-13.1648,-4.0563,-8.6377,-2.0944,-11.0366,-4.6299
791,09:30:25.950,12.0125,2.3638,-19.6843,-29.1651,-10.61,-10.012,-12.4227,-11.0994,-6.4704,-9.5627,-9.5604,-4.6387,2.4312,-39.5322,-13.1827,-10.7098,-11.3154,-11.6536,-10.8034,-13.3372,-4.5996,-8.0323,-0.663,-10.3122,-5.8227
793,09:30:25.952,8.4685,6.3953,-17.259,-27.3855,-10.2296,-9.995,-12.5538,-11.3245,-7.9274,-10.1664,-7.7592,-3.3718,-1.0993,-36.7209,-11.5856,-10.2979,-11.6402,-10.8394,-10.1482,-13.139,-4.9826,-7.0835,0.0155,-8.7323,-6.4841
795,09:30:25.954,4.4961,8.8069,-13.0405,-24.3988,-9.0781,-9.795,-11.9833,-11.2504,-8.6975,-9.8681,-6.1027,-2.1466,-4.1292,-31.0845,-9.6271,-9.653,-11.4216,-9.2817,-9.0992,-12.3013,-4.9444,-5.2816,0.4289,-6.6435,-6.8662
797,09:30:25.956,0.0703,7.9319,-7.8831,-19.5871,-7.5425,-9.4164,-11.0761,-10.8546,-9.3193,-9.2585,-4.6683,-1.2607,-6.8546,-24.1956,-7.5683,-8.9689,-10.9185,-7.3427,-7.8238,-11.2043,-4.6606,-2.9777,0.7062,-5.2244,-7.5669
799,09:30:25.958,-4.4331,3.5941,-4.1893,-14.0985,-6.7078,-9.3501,-10.7682,-10.3616,-10.4882,-8.6998,-4.2073,-1.2414,-10.0939,-15.9784,-6.4739,-8.9357,-10.801,-6.2418,-7.1295,-10.7487,-4.7278,-1.4134,0.5279,-5.8005,-9.0174
801,09:30:25.960,-8.1348,-2.0561,-4.0881,-10.0832,-7.3883,-10.1718,-11.7448,-10.1448,-12.4109,-8.2822,-5.3625,-2.2821,-14.2051,-6.0238,-7.3253,-10.0932,-11.505,-7.0189,-7.7397,-11.5335,-5.5985,-1.6131,-0.2573,-8.5998,-11.1419
803,09:30:25.962,-10.4942,-5.8428,-7.2459,-8.7009,-9.2753,-11.8949,-13.7311,-10.4034,-14.6243,-8.003,-7.63,-3.8012,-18.4712,4.4017,-9.811,-12.1366,-12.7351,-9.393,-9.4794,-13.2208,-7.064,-3.3423,-1.2454,-12.3292,-13.357
805,09:30:25.964,-12.0478,-6.1622,-10.8851,-9.1224,-11.1951,-13.8103,-15.6993,-10.9469,-16.3635,-7.8941,-9.4806,-4.8147,-21.5583,11.977,-12.3029,-14.0577,-13.7241,-11.872,-11.3343,-14.8343,-8.3887,-5.3385,-1.881,-15.2023,-14.8575
807,09:30:25.966,-13.9225,-4.3273,-12.2366,-9.5793,-12.2022,-15.0242,-16.7799,-11.3313,-17.085,-7.9493,-9.7006,-4.8242,-22.6245,13.3518,-13.223,-15.0518,-13.9754,-13.0795,-12.3466,-15.6725,-8.9616,-6.5145,-2.0835,-16.3688,-15.0243
809,09:30:25.968,-16.4269,-3.1962,-10.8996,-9.1627,-12.2738,-15.1303,-16.852,-11.2101,-16.6806,-7.9472,-8.4837,-4.2149,-21.9743,7.8822,-12.3787,-15.182,-13.6275,-12.872,-12.3563,-15.8042,-8.7478,-6.7195,-2.2012,-16.1669,-13.732
811,09:30:25.970,-18.2975,-4.5095,-8.7252,-8.3452,-11.9174,-14.3578,-16.219,-10.5609,-15.3194,-7.4388,-7.0437,-3.7066,-20.5975,-1.555,-10.8951,-15.0791,-13.0625,-12.1234,-11.8551,-15.661,-8.101,-6.3206,-2.3404,-15.0357,-11.3557
813,09:30:25.972,-17.6941,-7.7318,-7.6641,-7.864,-11.3675,-13.1862,-14.9471,-9.6434,-13.2684,-6.0856,-6.2455,-3.5556,-19.1314,-10.6386,-9.9779,-15.1244,-12.3515,-11.6303,-11.3026,-15.365,-7.2891,-5.4292,-2.0525,-12.6064,-8.4959
815,09:30:25.974,-14.1699,-11.3649,-8.1,-7.5296,-10.4773,-11.9751,-12.8491,-8.8334,-10.9599,-4.1611,-5.8512,-3.4841,-17.3987,-16.7575,-9.9417,-15.1472,-11.3152,-11.4928,-10.7945,-14.7001,-6.3684,-3.9509,-0.9535,-8.2935,-5.7019
817,09:30:25.976,-9.6007,-14.7877,-9.1895,-6.4266,-9.3668,-10.9622,-10.1707,-8.4833,-9.0918,-2.6609,-5.1313,-3.3383,-14.9466,-20.3029,-10.3685,-14.925,-10.0986,-11.5077,-10.3418,-13.7061,-5.4807,-2.3285,0.466,-2.7423,-3.4375
819,09:30:25.978,-6.912,-18.2052,-10.1874,-4.1531,-8.7591,-10.3715,-7.9495,-8.755,-8.3164,-2.6188,-3.9161,-3.4817,-11.7849,-22.9588,-10.8225,-14.6738,-9.3568,-11.7428,-10.1446,-12.9669,-4.997,-1.6791,1.044,1.8238,-2.1581
821,09:30:25.980,-7.5987,-20.9017,-10.8938,-1.5323,-9.2812,-10.2458,-7.2665,-9.3775,-8.5572,-4.0035,-2.7432,-4.2586,-8.3408,-24.897,-11.0929,-14.7362,-9.5686,-12.352,-10.3162,-13.0064,-5.113,-2.7065,0.1948,3.2166,-2.1413
823,09:30:25.982,-10.313,-20.4773,-11.0151,-0.0024,-10.4656,-10.157,-8.04,-9.5712,-8.6947,-5.2904,-2.0467,-5.1633,-4.7762,-23.9668,-10.8898,-14.8301,-10.2173,-12.9217,-10.4253,-13.4488,-5.3373,-4.5563,-1.2203,1.3521,-3.0611
825,09:30:25.984,-11.8873,-14.8428,-9.8985,-0.4793,-10.8533,-9.369,-8.8466,-8.4899,-7.3069,-4.496,-1.5946,-4.9538,-0.7742,-17.9282,-9.8136,-13.9913,-10.0094,-12.4852,-9.6798,-13.1202,-4.6861,-5.2652,-1.6317,-1.5261,-3.8667
827,09:30:25.986,-9.9538,-5.2167,-7.4362,-2.8895,-9.4234,-7.5826,-8.2672,-6.0517,-4.088,-1.0771,-0.9787,-2.9146,3.6798,-7.5057,-7.9568,-11.5877,-8.1955,-10.5478,-7.8201,-11.2574,-2.664,-3.7159,-0.5069,-2.9073,-3.4621
829,09:30:25.988,-4.9125,3.544,-4.9168,-6.5028,-6.8511,-5.5162,-6.4373,-3.3751,-0.5573,3.0817,-0.4445,0.0639,7.4973,3.0557,-6.3265,-8.323,-5.6174,-7.9719,-5.7065,-8.5535,-0.0332,-1.0107,0.862,-2.3015,-1.7721
831,09:30:25.990,0.3879,6.5472,-4.1701,-10.2487,-5.0076,-4.4426,-5.0203,-2.1071,0.9572,4.8824,-0.7479,2.0324,9.0288,8.8785,-6.1321,-5.8597,-4.1357,-6.394,-4.6584,-6.7073,1.6684,0.495,0.6317,-1.4074,-0.0234
833,09:30:25.992,2.9358,3.2504,-5.4284,-12.6257,-5.0016,-4.8556,-5.45,-2.9631,-0.5996,2.6771,-1.9424,1.9039,7.7829,8.2358,-7.3311,-5.1616,-4.7989,-6.4716,-4.9758,-6.7219,1.6316,-0.2958,-1.4372,-2.0809,0.3832
835,09:30:25.994,1.9319,-1.9078,-6.3701,-11.834,-5.8232,-5.5934,-7.2611,-4.8162,-3.8154,-2.0202,-2.5626,0.8157,5.4378,3.686,-8.0586,-5.2671,-6.6136,-6.8348,-5.2184,-7.6915,0.8203,-1.8581,-3.2408,-4.3072,-0.5197
837,09:30:25.996,-0.5783,-3.572,-3.9568,-6.7645,-5.1659,-4.5452,-8.3528,-5.4062,-5.8118,-5.5467,-0.5234,1.3397,4.656,-0.4053,-5.9593,-3.9765,-7.2962,-5.1206,-3.2445,-7.4581,1.3332,-1.4318,-1.9196,-6.2314,-0.9332
839,09:30:25.998,-1.2217,-0.2691,2.4523,1.7623,-1.6854,-0.4933,-6.9822,-3.2172,-4.631,-5.0678,4.8519,5.1201,6.6062,-1.4375,-0.4036,0.0586,-5.3351,-0.2591,1.8146,-4.5926,4.5313,2.2032,3.7156,-6.0357,1.129
841,09:30:26,2.2283,4.8267,9.9981,10.9581,3.627,5.6568,-3.4247,1.1891,-0.7803,-0.8058,11.7545,11.2174,9.7792,0.0766,6.6155,5.9364,-1.313,6.3016,8.5772,0.2557,9.7176,7.4506,12.2144,-3.6368,5.7825
843,09:30:26.002,9.2328,7.6542,14.6387,17.7803,8.3437,11.5197,0.3672,5.6653,3.4587,4.4779,17.0876,16.8002,11.4932,2.1599,11.9593,11.2376,2.7537,11.7466,14.4497,4.9508,14.6736,11.3859,20.6949,-0.6221,10.8788
845,09:30:26.004,16.8491,7.3519,14.6976,21.0803,10.7772,15.152,2.6246,8.3038,6.1269,8.0642,18.9529,19.5026,10.5731,3.7744,13.8901,14.1377,5.2538,14.303,17.704,7.7404,17.5248,12.377,26.8489,1.2367,13.7985
847,09:30:26.006,21.7466,6.4604,12.1484,22.186,11.2309,16.4114,3.1685,8.8346,6.9954,9.3439,18.0869,19.2036,8.3587,5.4211,13.3291,14.8014,6.1337,14.5592,18.6423,8.564,18.1364,11.2245,29.9443,1.3216,13.6637
849,09:30:26.008,22.3847,7.526,10.5498,23.359,11.291,16.5864,3.1032,8.3965,7.1381,9.6013,16.9623,17.7289,7.0376,7.773,12.798,14.8539,6.4504,14.5801,18.9209,8.7095,17.834,10.0073,30.4167,0.3018,11.7862
851,09:30:26.010,19.7819,10.2079,11.9127,25.6539,12.1865,16.9225,3.4488,8.1829,7.4892,10.1942,17.558,17.0536,7.2293,10.3431,14.2277,15.7217,7.1123,15.933,19.9153,9.432,17.9543,10.1631,29.0164,-0.6735,10.081
853,09:30:26.012,16.4032,11.9928,15.492,28.1841,13.9219,17.602,4.2724,8.434,8.0177,11.2316,19.8932,17.7912,7.452,11.7784,17.6337,17.5488,8.1741,18.5647,21.7121,10.9636,18.7367,11.696,26.4166,-0.808,9.2442
855,09:30:26.014,14.1481,11.2808,19.1205,29.2359,15.7154,17.9589,4.993,8.5806,8.1323,11.8832,22.3818,19.0819,5.8788,11.2046,21.4897,19.4533,9.1225,21.2697,23.3845,12.6265,19.4401,13.7835,23.2008,0.0213,8.477
857,09:30:26.016,13.0893,9.0911,21.1773,27.8405,16.8483,17.3152,5.1431,8.0131,7.4901,11.5114,23.2617,19.5158,2.3069,8.8957,24.0076,20.4405,9.481,22.8484,23.8889,13.5716,19.2209,15.6186,19.7222,1.3798,6.6589
859,09:30:26.018,11.9304,7.6411,21.2546,24.2478,16.9583,15.4319,4.6292,6.5147,6.1877,10.1647,21.6849,18.0779,-1.7227,5.6406,24.0919,19.944,9.0152,22.7373,22.6329,13.3021,17.745,16.5841,15.8776,2.5755,3.4527
861,09:30:26.020,9.6532,7.8517,19.5274,19.1759,15.8245,12.3757,3.452,4.1393,4.3502,8.1178,17.8688,14.6007,-4.4754,1.9025,21.5455,17.8005,7.6082,20.8891,19.5046,11.7304,15.1374,16.0706,11.3362,3.0293,-0.6598
863,09:30:26.022,6.8041,8.8428,16.1643,12.9899,13.3324,8.3815,1.5627,1.0841,1.9245,5.4271,12.727,9.8526,-5.3603,-2.0506,16.8978,14.1749,5.2997,17.5329,14.8037,9.0958,11.7163,13.6865,6.2948,2.601,-4.9166
865,09:30:26.024,5.2321,9.7419,11.519,5.7686,9.8347,4.0577,-0.8309,-2.0941,-0.928,2.2669,7.5054,5.3682,-4.8013,-5.3992,11.2092,9.7022,2.5674,13.2333,9.3269,5.9904,7.9948,9.8328,1.9538,1.6571,-8.4327
867,09:30:26.026,6.5129,11.2262,6.5104,-1.9723,6.3472,0.5172,-2.9923,-4.3185,-3.4026,-0.4612,3.4325,2.8344,-3.2574,-6.7565,5.7813,5.4856,0.3757,8.9547,4.3178,3.3098,4.8105,5.8561,-0.0685,0.7817,-10.0008
869,09:30:26.028,10.4846,14.7014,2.3745,-8.8622,4.0795,-1.0986,-3.9764,-4.448,-4.3379,-1.3278,1.2245,3.0773,-0.7764,-5.2998,1.6734,2.6041,-0.3274,5.7202,0.9727,1.898,3.1105,3.3324,0.9695,0.3816,-8.4089
871,09:30:26.030,15.1959,20.1107,-0.0593,-13.1091,3.6225,-0.4607,-3.3426,-2.1582,-3.1162,0.4725,0.7064,5.3615,2.5402,-1.8263,-0.6963,1.4525,0.7125,4.0492,-0.2238,2.0606,3.3534,3.0471,4.223,0.5561,-3.5342
873,09:30:26.032,18.2744,25.1434,-0.7363,-13.4517,4.6053,1.6122,-1.5031,1.6245,-0.2804,4.1662,1.0317,7.805,6.0264,1.6121,-1.4963,1.5975,2.8828,3.7521,0.2936,3.3953,5.0868,4.6059,7.9151,1.2702,2.8637
875,09:30:26.034,18.494,26.9396,-0.0712,-9.9195,6.1291,3.7668,0.6612,5.2761,2.7891,7.7747,1.4515,8.7706,8.6765,3.2155,-1.0727,2.3047,5.1959,4.2745,1.6309,5.1064,7.2037,6.9066,10.6578,2.4833,7.8815
877,09:30:26.036,16.2757,24.4344,1.4697,-3.9667,7.4436,5.0895,2.4548,7.5436,4.8189,9.5765,1.88,8.0186,9.8194,2.4941,0.2883,3.1186,6.9172,5.1312,3.0581,6.4863,8.6836,8.8641,12.052,3.9977,9.4634
879,09:30:26.038,12.9258,18.8561,3.3502,2.0719,8.1969,5.4906,3.6226,8.1523,5.3324,9.2707,2.6268,6.5371,9.4241,-0.0363,2.1679,3.8864,7.7676,5.9588,4.1986,7.1532,9.136,9.7771,12.1319,5.2841,7.867
881,09:30:26.040,9.5058,12.1873,4.7958,6.0509,8.2524,5.2969,4.1411,7.5652,4.6199,7.837,3.6527,5.3184,7.8173,-3.727,3.8135,4.3984,7.7335,6.3437,4.8097,7.0083,8.7487,9.373,10.6631,5.7107,5.1981
883,09:30:26.042,6.339,5.6441,5.1238,7.2168,7.5854,4.7469,4.0409,6.4024,3.2848,6.4692,4.3527,4.4627,5.3632,-7.9641,4.4944,4.326,6.9311,5.9437,4.7007,6.1788,7.9056,7.8881,7.4387,5.123,3.5384
885,09:30:26.044,3.3538,-0.2354,4.4801,6.7837,6.4817,4.0216,3.5455,5.1851,1.8915,5.7557,4.2714,3.5358,2.5339,-11.6651,4.2554,3.6663,5.7107,4.9478,4.0355,5.0566,6.9674,6.1606,3.317,4.1418,3.5254
887,09:30:26.046,0.6723,-4.6114,4.0304,7.1721,5.6338,3.5642,3.1996,4.4267,0.8677,5.7337,3.9162,2.5948,0.0702,-13.3036,4.1699,3.0729,4.6979,4.2376,3.5572,4.2253,6.3075,5.3263,0.5313,3.7014,4.5426
889,09:30:26.048,-1.2027,-6.2836,4.9979,10.1145,5.7058,3.9854,3.5629,4.6037,0.4788,6.3919,4.5193,2.5075,-1.2679,-11.9628,5.5019,3.4191,4.4699,4.746,4.1609,4.106,6.2824,6.0361,1.3702,4.1729,5.8761
891,09:30:26.050,-1.7042,-4.9427,7.3078,15.0473,6.645,5.4299,4.6454,5.8172,0.7785,7.8616,6.7567,4.0588,-1.2271,-8.2868,8.3912,4.8764,5.0805,6.4699,6.0122,4.5625,6.9592,7.8155,6.1731,4.9733,7.3748
893,09:30:26.052,-0.6629,-2.1576,9.336,19.3561,7.5235,7.1483,5.7398,7.5399,1.6409,10.1184,9.7744,6.844,-0.1932,-3.9994,11.4148,6.5318,5.9586,8.2216,8.1444,4.9185,7.8901,9.3065,12.6071,5.1041,9.0649
895,09:30:26.054,1.4359,-0.6126,9.27,20.531,7.2424,7.9492,5.9491,8.8733,2.8983,12.6385,11.7385,9.2814,1.3346,-0.4012,12.656,7.1046,6.3507,8.5778,9.1422,4.478,8.3214,9.3151,17.1254,4.0695,10.5117
897,09:30:26.056,3.5155,-2.1192,6.8371,18.3792,5.4736,7.1993,4.904,9.151,4.3782,14.4475,11.4927,9.845,3.3168,2.3446,11.3587,6.0958,5.8675,7.1706,8.3634,3.0749,7.7527,7.7274,17.4163,2.2276,10.88
899,09:30:26.058,4.2889,-6.3463,3.6254,15.1538,2.8855,5.3205,2.927,8.2921,5.7169,14.5461,9.6118,8.2683,6.0366,4.3289,8.5532,4.1654,4.5959,4.9918,6.4702,1.1066,6.2972,5.4524,13.7452,0.2887,9.6234
901,09:30:26.060,2.9212,-11.362,1.6164,13.3608,0.4467,3.2437,0.5447,6.609,6.2147,12.4146,7.7208,5.551,9.3698,4.8346,6.0319,2.3659,2.7657,3.3725,4.7024,-0.9384,4.4632,3.5298,8.253,-1.4013,6.9249
903,09:30:26.062,-0.282,-15.1425,1.3782,13.3111,-1.4332,1.4502,-2.022,4.3944,5.1246,8.3318,6.8187,2.9298,12.3866,2.9011,4.7092,1.1051,0.453,2.7059,3.6561,-2.9118,2.6136,2.3185,3.1634,-3.0272,3.3822
905,09:30:26.064,-3.7204,-16.5209,1.6772,12.7933,-3.0592,-0.3372,-4.8264,1.7692,2.2944,3.3487,6.3983,0.9741,13.8885,-0.9625,3.9709,-0.0551,-2.3359,2.2186,2.8329,-4.9523,0.7038,1.4487,-0.4487,-4.8797,-0.5982
907,09:30:26.066,-5.3201,-15.1459,0.782,9.1768,-4.874,-2.5521,-7.7932,-1.1575,-1.4812,-1.172,5.2179,-0.4185,13.3799,-4.4082,2.5427,-1.6645,-5.3889,0.9349,1.3603,-7.0983,-1.4537,0.3683,-2.6236,-6.9452,-4.9188
909,09:30:26.068,-3.9988,-11.2077,-1.8961,1.9093,-6.8669,-5.0504,-10.535,-4.1461,-4.9157,-4.3037,2.7619,-1.4669,11.4434,-5.4415,-0.1104,-3.6303,-8.2409,-1.2574,-0.9671,-9.0724,-3.7618,-1.169,-3.8068,-8.949,-9.3088
911,09:30:26.070,-0.6301,-5.4907,-5.3206,-6.8824,-8.5628,-7.0929,-12.6104,-6.8907,-7.1784,-6.0777,-0.2029,-2.191,9.1695,-4.9743,-3.2303,-5.2541,-10.4403,-3.5002,-3.4199,-10.4639,-5.7571,-3.0271,-4.3437,-10.6461,-12.9096
913,09:30:26.072,2.5066,0.6666,-7.7311,-14.0377,-9.4528,-7.9911,-13.8377,-9.1145,-8.4175,-7.2501,-2.416,-2.5492,7.3142,-6.3756,-5.4375,-5.8936,-11.7977,-4.7575,-5.0035,-11.0349,-6.9381,-4.8386,-4.3909,-11.9043,-14.5593
915,09:30:26.074,3.5613,6.0407,-7.9466,-17.5747,-9.3187,-7.6444,-14.2565,-10.5294,-9.3375,-8.4232,-3.2175,-2.567,6.0072,-11.8101,-5.8257,-5.4526,-12.3451,-4.5855,-5.2625,-10.7871,-7.114,-6.1033,-3.898,-12.525,-13.6355
917,09:30:26.076,2.7184,10.3657,-6.0211,-17.621,-8.2036,-6.4555,-13.8701,-10.8251,-10.3259,-9.3837,-2.7888,-2.1437,5.0409,-19.2289,-4.4783,-4.2684,-12.1393,-3.2187,-4.4479,-9.8012,-6.4449,-6.2596,-2.5039,-12.174,-10.7005
919,09:30:26.078,2.087,14.2738,-3.0037,-15.6998,-6.2663,-4.8869,-12.6161,-9.9271,-11.0909,-9.4252,-1.5618,-0.8859,4.1443,-23.737,-2.1712,-2.7185,-11.2333,-1.1761,-3.0932,-8.1565,-5.2494,-4.9245,0.3604,-10.6473,-7.3367
921,09:30:26.080,3.8686,18.1258,-0.2247,-13.3918,-3.79,-3.2281,-10.6524,-8.3406,-11.1459,-8.3709,0.2594,1.5489,2.9279,-22.316,0.2377,-1.0647,-9.8479,1.0371,-1.6017,-6.0613,-3.8568,-2.2464,4.9333,-8.1919,-5.2514
923,09:30:26.082,8.3642,20.9527,1.403,-11.4428,-1.2499,-1.6975,-8.5221,-7.0503,-10.498,-7.1196,2.5047,4.7958,0.8539,-16.8716,2.2023,0.4309,-8.436,2.9625,-0.1951,-3.9493,-2.5875,0.9851,10.5079,-5.4562,-5.2826
925,09:30:26.084,13.5347,20.8493,1.8077,-9.5933,0.8343,-0.5302,-6.8425,-6.8079,-9.7129,-6.949,4.6478,7.6146,-2.3708,-12.2002,3.5726,1.4825,-7.4237,4.252,0.9864,-2.2826,-1.7,3.7204,15.4219,-3.0707,-6.9668
927,09:30:26.086,16.4464,16.6385,1.7598,-6.888,2.2511,0.1891,-5.7832,-7.4132,-9.3096,-8.208,5.9611,8.6455,-6.2643,-11.0809,4.5439,2.0086,-6.8472,4.9218,1.9359,-1.1838,-1.2169,5.3117,17.8851,-1.2918,-8.9125
929,09:30:26.088,15.3555,9.1855,2.3905,-2.3077,3.2932,0.7165,-4.9417,-7.805,-9.2212,-9.8283,6.1732,7.4957,-9.6125,-11.8569,5.539,2.3196,-6.3024,5.4949,2.9071,-0.3097,-0.8133,5.9364,17.0873,-0.0214,-9.7056
931,09:30:26.090,10.8198,1.0823,4.4414,4.3928,4.5261,1.5205,-3.7918,-6.9959,-8.9316,-10.26,5.8269,5.102,-11.269,-10.91,6.9753,2.939,-5.3026,6.69,4.3033,0.8486,0.0135,6.4364,13.7307,0.9604,-8.748
933,09:30:26.092,5.1951,-4.9113,7.7637,12.1049,6.3066,2.8957,-2.1994,-4.9394,-8.0743,-8.868,5.8356,3.009,-10.9776,-6.8749,8.9852,4.1854,-3.6823,8.8296,6.3129,2.5282,1.5743,7.6863,9.6185,1.8857,-6.4832
935,09:30:26.094,1.1251,-7.2236,11.4804,18.6956,8.5036,4.7411,-0.4403,-2.4374,-6.7714,-6.3051,6.6914,2.2877,-9.3549,-1.7641,11.3189,5.9587,-1.6502,11.552,8.6735,4.5565,3.766,9.9431,6.6607,3.0224,-3.8881
937,09:30:26.096,0.1451,-5.7478,14.665,22.2787,10.6423,6.7351,1.2092,-0.226,-5.368,-3.5388,8.1744,3.0784,-7.0797,1.9077,13.5458,7.9334,0.4908,14.1385,10.8742,6.591,6.2121,12.6202,5.97,4.5529,-1.6427
939,09:30:26.098,2.1511,-1.3878,16.9263,22.4678,12.2712,8.6565,2.7391,1.7446,-3.9518,-0.7104,9.7707,4.9595,-4.2402,4.2491,15.3687,9.8799,2.5929,16.1027,12.5967,8.4083,8.5911,14.6585,7.501,6.2647,0.3603
941,09:30:26.100,5.8077,4.4291,18.447,20.464,13.211,10.4622,4.2256,4.0957,-2.259,2.8693,11.1916,7.511,-0.5789,7.6405,16.7526,11.742,4.6338,17.4511,13.9071,9.9453,10.7986,15.2978,10.2916,7.4583,2.7897
943,09:30:26.102,9.4776,10.1687,19.6251,17.896,13.5762,12.1005,5.5404,7.1902,-0.0576,7.6352,12.4161,10.4607,3.7147,13.5078,17.8146,13.4709,6.5388,18.4623,15.024,11.1605,12.8275,14.7405,13.1093,7.4349,6.1438
945,09:30:26.104,12.0869,14.788,20.7978,15.5932,13.6841,13.4017,6.4364,10.628,2.4736,12.8736,13.4073,13.4819,7.6792,20.1363,18.6927,14.9358,8.1403,19.3753,16.0049,11.9941,14.5946,14.1615,15.1504,6.2614,10.1493
947,09:30:26.106,13.4415,18.276,22.2435,13.4941,13.9404,14.251,6.9397,13.5517,4.8216,17.0464,14.0558,16.1182,10.1872,24.0263,19.5544,16.0669,9.3343,20.3401,16.7565,12.4958,15.9636,14.9221,16.3833,5.0095,13.8211
949,09:30:26.108,13.882,21.4113,24.1785,11.5875,14.6533,14.8153,7.4884,15.358,6.5767,19.0013,14.4507,17.9982,10.8294,23.1851,20.6149,17.0045,10.2104,21.5074,17.308,12.8912,16.9198,17.4933,17.2814,5.0496,16.1725
951,09:30:26.110,13.667,24.5758,26.4704,10.6138,15.776,15.4598,8.5039,16.0799,7.7377,18.8287,14.9692,19.0166,10.0881,18.7968,21.9562,17.9612,10.9589,22.914,17.9107,13.3896,17.6251,20.9473,18.1512,6.9406,17.0
953,09:30:26.112,12.6927,26.648,28.2946,11.5637,16.7631,16.3443,9.8036,16.1692,8.5639,17.5781,15.83,19.1801,8.6405,13.781,23.2292,18.8722,11.6193,24.1692,18.733,13.8738,18.2095,23.4818,18.6562,9.9252,17.0331
955,09:30:26.114,10.8048,25.2909,28.2789,14.4552,16.7633,17.1055,10.5404,15.9921,9.1612,16.2271,16.5388,18.3058,6.6457,10.0632,23.6201,19.2322,11.9243,24.3848,19.4664,13.822,18.4862,23.5797,18.0136,12.4643,17.2138
957,09:30:26.116,8.2903,18.7022,25.3106,17.7872,15.1027,16.9878,9.8123,15.4918,9.2635,14.9196,16.01,16.0159,3.8644,7.3068,22.3002,18.3675,11.4064,22.6566,19.3497,12.6147,17.9184,20.8795,15.6835,13.2671,17.6589
959,09:30:26.118,5.8733,7.3626,19.4392,19.4267,11.7132,15.3422,7.3612,14.2212,8.4487,13.083,13.4653,12.1333,0.4448,3.9517,19.0632,15.9345,9.7039,18.7809,17.6997,9.9951,15.954,16.1553,11.8514,11.9344,17.299
961,09:30:26.120,4.0702,-5.7951,12.0461,18.1774,7.1681,12.0733,3.7058,11.6959,6.5734,10.1769,9.2502,7.0692,-2.6254,-0.8326,14.5576,12.1969,6.8483,13.5207,14.4748,6.2909,12.487,10.6205,7.235,8.8743,14.7243
963,09:30:26.122,2.5715,-16.9379,5.0228,14.5459,2.3113,7.6981,-0.3386,7.8717,3.9881,6.3542,4.654,1.7543,-4.0768,-6.1295,9.8409,7.854,3.3166,8.1046,10.3286,2.219,8.0524,5.2367,2.5043,4.8303,9.6262
965,09:30:26.124,0.4673,-23.3243,-0.421,10.0133,-2.2157,3.0275,-4.2244,3.4257,1.3116,2.504,0.8426,-2.8504,-3.4549,-9.8942,5.6206,3.5995,-0.2254,3.3863,6.1048,-1.5681,3.5527,0.4616,-1.9862,0.4756,3.4533
967,09:30:26.126,-2.7012,-24.3898,-4.3705,5.5867,-6.2093,-1.263,-7.8329,-0.4806,-1.0104,-0.3168,-2.0293,-6.2079,-1.6002,-10.57,1.8448,-0.2314,-3.3394,-0.5962,2.2532,-4.8448,-0.2961,-3.6405,-5.9058,-3.787,-1.5428
969,09:30:26.128,-6.086,-21.5743,-7.7756,1.0757,-9.7718,-4.8844,-11.2072,-2.9118,-2.9095,-1.5764,-4.6564,-8.2665,0.065,-8.3998,-2.0185,-3.6869,-6.0487,-4.3198,-1.3076,-7.8132,-3.344,-7.1746,-8.6033,-7.8484,-4.1091
971,09:30:26.130,-7.9299,-17.3394,-11.3477,-4.2036,-12.9365,-7.858,-14.1819,-3.775,-4.4502,-1.5054,-7.6079,-9.2066,0.7761,-5.3229,-6.2743,-6.9121,-8.6199,-8.0645,-4.789,-10.716,-5.8659,-10.1585,-9.3227,-11.6831,-4.8789
973,09:30:26.132,-7.1333,-13.9023,-14.6479,-10.0038,-15.342,-10.1901,-16.2317,-3.7173,-5.4336,-0.6856,-10.5653,-9.1973,0.9285,-3.3615,-10.4567,-9.7718,-11.0304,-11.4206,-7.9887,-13.3592,-8.0154,-12.2537,-7.8741,-14.9242,-5.4014
975,09:30:26.134,-4.6403,-12.1387,-16.0951,-14.4857,-16.2688,-11.6082,-16.6838,-3.3878,-5.3918,0.5625,-12.4835,-8.3612,1.3104,-2.8354,-13.389,-11.715,-12.6916,-13.4115,-10.1501,-15.0106,-9.4377,-12.7224,-5.0008,-16.6194,-6.3554
977,09:30:26.136,-3.22,-11.2727,-14.0137,-15.2253,-15.1558,-11.712,-15.2398,-2.9099,-4.1486,2.2736,-12.4476,-6.8906,1.8645,-2.2842,-13.8707,-12.12,-12.8915,-13.1702,-10.4566,-14.938,-9.5466,-10.9033,-1.962,-15.692,-6.9534
979,09:30:26.138,-5.5408,-9.8577,-8.1087,-11.2851,-12.3034,-10.5415,-12.4934,-2.221,-2.4255,4.2229,-10.4402,-5.1696,1.334,-0.5303,-11.5963,-10.9754,-11.6901,-10.7299,-8.8496,-13.2571,-8.3288,-7.026,0.2475,-11.9999,-6.2505
981,09:30:26.140,-11.9914,-7.5597,-0.3113,-4.5733,-9.1272,-9.0229,-9.9415,-1.8356,-1.7055,5.3442,-7.46,-3.7968,-1.6852,1.1606,-7.6882,-9.3074,-10.3321,-7.3588,-6.4643,-11.2794,-6.8512,-2.6031,1.2149,-7.0094,-4.8095
983,09:30:26.142,-20.0543,-6.1227,5.8428,0.9758,-7.5044,-8.6304,-9.1908,-2.8715,-3.1789,4.1577,-4.9997,-3.4327,-7.1932,-0.4352,-4.3326,-8.7533,-10.4936,-5.0543,-5.1306,-10.7877,-6.7333,0.2376,0.7959,-3.124,-4.5836
985,09:30:26.144,-25.8162,-8.1651,7.1758,2.1006,-8.5102,-10.2617,-10.7753,-5.9326,-6.5927,0.1799,-4.2319,-4.4434,-13.2526,-7.1948,-3.5414,-10.3715,-12.8269,-5.3518,-6.1109,-12.6403,-8.8082,0.1528,-1.1349,-1.9606,-6.8439
987,09:30:26.146,-26.4797,-14.465,2.9148,-1.326,-11.5414,-13.2509,-13.593,-9.9545,-10.1564,-5.0423,-5.3235,-6.5004,-17.1184,-16.8163,-5.7961,-13.6369,-16.1636,-8.232,-9.0268,-15.9204,-12.1655,-2.4666,-4.2698,-3.1174,-10.3892
989,09:30:26.148,-21.9811,-22.2724,-4.7396,-6.2751,-14.6804,-15.5925,-15.6522,-12.5481,-11.7945,-8.6608,-7.2656,-8.5091,-17.1396,-23.9505,-9.6305,-16.6434,-18.2943,-12.041,-11.9768,-18.5395,-14.6352,-5.8738,-7.2535,-4.7078,-12.2632
991,09:30:26.150,-14.6367,-26.6779,-12.0603,-9.163,-16.1021,-15.4259,-15.6289,-11.9175,-10.7391,-8.7414,-8.4385,-9.1324,-13.807,-24.7908,-12.6258,-17.5215,-17.7457,-14.6293,-12.9202,-18.88,-14.4683,-8.3008,-7.9745,-5.1976,-10.5522
993,09:30:26.152,-7.3361,-24.2539,-16.1717,-8.8308,-15.3363,-12.5473,-13.8443,-8.5708,-8.0372,-5.9571,-7.6787,-7.6705,-9.0979,-20.577,-13.1212,-15.8803,-14.9292,-14.8516,-11.231,-17.0096,-11.7431,-8.991,-5.0641,-4.7134,-6.4223
995,09:30:26.154,-1.8212,-15.8162,-16.5165,-7.2213,-13.3167,-8.5534,-11.7416,-4.9856,-5.5215,-2.9767,-5.1175,-4.608,-4.7962,-16.2218,-11.2666,-12.9729,-11.6091,-13.1848,-8.078,-14.3742,-8.1977,-8.1336,0.6213,-4.5513,-3.1714
997,09:30:26.156,1.7572,-5.7977,-14.4587,-7.2231,-11.3074,-5.4766,-10.4255,-3.4132,-4.2344,-1.9881,-2.0838,-1.3075,-1.3096,-15.4094,-8.5985,-10.4855,-9.284,-11.0135,-5.3233,-12.3694,-5.6777,-6.1413,6.1732,-5.5546,-3.1508
999,09:30:26.158,4.0502,1.1466,-11.746,-9.8638,-9.8346,-4.2034,-9.7512,-3.9615,-3.7485,-2.7385,-0.1089,0.9287,2.0898,-17.3601,-6.653,-9.1632,-8.0719,-9.3744,-4.0016,-11.2419,-4.6924,-3.2865,8.6395,-7.1681,-5.6155
1001,09:30:26.160,5.5013,3.2377,-9.3667,-13.5407,-8.5897,-4.0888,-8.784,-4.7963,-2.8788,-2.9959,0.1202,1.6303,6.0346,-18.5246,-5.9297,-8.5346,-7.0395,-8.3624,-3.7632,-10.2917,-4.3527,-0.0172,7.1671,-8.0877,-7.5294
1003,09:30:26.162,6.0314,1.9173,-7.5643,-15.786,-7.1561,-3.9085,-6.9467,-4.079,-0.947,-0.8715,-0.9998,1.1744,10.104,-16.9417,-5.9896,-7.7815,-5.3927,-7.5709,-3.6155,-8.9143,-3.5155,2.74,3.3465,-7.5904,-6.334
1005,09:30:26.164,5.4589,-0.2189,-6.4189,-15.5158,-5.5989,-3.0263,-4.535,-1.5712,1.6403,3.3922,-2.5794,0.2197,13.0031,-14.2067,-6.2526,-6.6668,-3.2058,-6.8243,-3.0105,-7.2402,-1.8452,4.011,-0.3974,-5.9977,-1.9406
1007,09:30:26.166,3.9922,-1.5648,-6.0158,-13.5011,-4.2951,-1.6733,-2.1662,1.5545,3.9174,7.8538,-3.9206,-0.7765,13.6292,-13.0649,-6.4925,-5.5772,-1.0817,-6.3093,-2.1533,-5.7747,0.1692,3.6486,-2.6614,-3.9295,3.6323
1009,09:30:26.168,2.2412,-1.9764,-6.0971,-10.9869,-3.3716,-0.3549,-0.012,4.131,5.321,10.8515,-4.6944,-1.5839,12.0217,-13.7472,-6.6468,-4.858,0.6415,-6.1079,-1.4293,-4.6623,1.966,2.5997,-3.494,-1.4904,8.1188
1011,09:30:26.170,0.834,-1.881,-5.9927,-8.3905,-2.5601,0.7324,2.189,5.9657,6.1272,12.41,-4.7635,-2.0071,9.3902,-13.3677,-6.498,-4.3729,2.1698,-5.9209,-0.8307,-3.5448,3.4425,2.0449,-3.4687,1.5077,10.4348
1013,09:30:26.172,0.1332,-1.4641,-5.3175,-5.5962,-1.6823,1.6517,4.4255,7.5279,7.0451,13.8143,-4.1806,-1.9042,7.2477,-8.9134,-5.8627,-3.8056,3.8064,-5.4689,-0.1119,-2.154,4.7619,2.1833,-2.8284,4.6194,10.7626
1015,09:30:26.174,0.3022,-0.6896,-4.7431,-3.1818,-1.1155,2.3222,6.0233,9.0694,8.4572,16.069,-3.4264,-1.4146,6.3818,-0.346,-5.091,-3.2276,5.435,-5.0698,0.6139,-0.8355,5.8791,1.9841,-1.6226,6.485,9.866
1017,09:30:26.176,1.4797,0.3544,-5.6621,-2.6467,-1.521,2.445,6.1976,10.3221,10.0436,18.9056,-3.3505,-0.9765,6.4587,9.3794,-5.0489,-3.1178,6.592,-5.4981,0.7407,-0.2788,6.4952,0.3142,-0.2321,5.8472,8.5441
1019,09:30:26.178,3.699,1.534,-8.6257,-4.904,-2.9777,1.9468,4.9978,10.9824,11.1018,21.1635,-4.4674,-0.9019,6.5309,16.89,-6.2435,-3.6959,7.0366,-7.0206,-0.1403,-0.6863,6.5219,-2.6061,0.8441,2.9231,7.435
1021,09:30:26.180,6.5837,3.0886,-12.0092,-8.5552,-4.4482,1.4044,3.5468,11.2214,11.2491,21.9303,-6.1343,-0.8806,6.014,20.626,-7.8691,-4.3137,7.1553,-8.595,-1.4214,-1.3018,6.4651,-4.9105,1.914,-0.4014,6.8868
1023,09:30:26.182,9.2306,5.6575,-12.5759,-10.1149,-4.3112,1.8437,3.2143,11.572,10.8657,21.285,-6.6149,-0.04,5.312,20.9806,-7.9536,-3.6936,7.7305,-8.2888,-1.5539,-0.8767,7.1931,-4.3909,4.4159,-1.953,6.8331
1025,09:30:26.184,10.5567,9.5881,-7.9257,-6.5185,-1.6577,3.9399,4.4853,12.3741,10.827,20.1026,-4.337,2.2956,5.4971,19.2129,-4.8267,-0.9621,9.259,-4.8063,0.7903,1.2974,9.2217,-0.3332,9.6961,-1.0023,6.8984
1027,09:30:26.186,9.8857,14.1274,1.1824,2.1478,2.7633,7.2785,6.5584,13.4049,11.6644,19.2545,0.6005,5.7603,7.22,16.6812,1.2595,3.4077,11.4122,1.1869,5.418,4.6955,12.1427,5.6787,17.1132,1.2307,6.7265
1029,09:30:26.188,7.265,17.4036,10.8335,12.188,6.8308,10.3457,7.9389,14.0018,12.8618,18.9043,6.0706,8.8383,9.7824,14.5706,7.8764,7.6198,13.0832,7.2013,10.3781,7.7705,14.6898,10.6714,23.4916,2.6694,6.161
1031,09:30:26.190,3.2949,17.4278,16.5201,18.6372,8.4081,11.3476,7.4285,13.4781,13.0254,18.4073,9.1791,9.7199,11.3302,13.4125,11.909,9.6167,13.0055,10.5089,13.1137,8.8797,15.4209,12.1962,24.9239,2.0033,5.0949
1033,09:30:26.192,-1.2474,13.4257,16.212,18.5302,6.7365,9.3391,4.7849,11.5408,10.9867,16.8964,8.1927,7.5206,10.2185,12.5529,11.6366,8.4097,10.5647,9.9192,12.1552,7.27,13.5835,9.8285,19.6439,-0.5,3.359
1035,09:30:26.194,-5.5782,6.5364,11.4605,12.5995,2.8539,4.9173,0.7919,8.5833,6.9849,14.1758,3.6327,2.9555,6.4618,10.6119,7.7743,4.721,6.3034,6.4059,8.082,3.529,9.6553,5.2553,9.529,-3.414,1.0575
1037,09:30:26.196,-8.8476,-0.5749,5.8387,4.3656,-1.1655,-0.0067,-3.1242,5.7304,2.817,11.2149,-2.1981,-2.0143,1.9262,7.0476,2.7882,0.509,1.7622,2.2614,3.0912,-0.7246,5.2128,1.025,-1.0358,-5.1979,-0.9459
1039,09:30:26.198,-10.2022,-4.933,2.2407,-2.381,-3.5191,-3.2795,-5.5356,4.4117,0.6561,9.6801,-6.7353,-5.2984,-1.036,3.2146,-0.8166,-2.2678,-1.3434,-0.4402,-0.4435,-3.7387,2.1077,-1.07,-7.9191,-5.0273,-1.2071
1041,09:30:26.200,-9.1953,-4.6478,1.2418,-5.7751,-3.6337,-3.7731,-5.7221,5.4829,1.4564,10.7011,-8.5674,-5.8164,-1.3584,1.406,-1.9142,-2.7999,-2.1417,-0.9703,-1.3765,-4.6163,1.3692,-0.8754,-9.4447,-3.042,1.2056
1043,09:30:26.202,-6.2541,0.146,1.485,-6.415,-2.2586,-2.0078,-4.1085,8.4634,4.3059,13.876,-7.9159,-3.9703,0.1302,2.6458,-1.0414,-1.7454,-1.1217,-0.0587,-0.2563,-3.7865,2.5559,0.4395,-6.6754,-0.1327,5.6244
1045,09:30:26.204,-2.6613,7.2061,1.2822,-6.2531,-0.8111,0.3029,-2.0575,11.6397,7.2442,17.4794,-6.1268,-1.2352,1.7326,5.6794,0.3407,-0.5895,0.2566,0.8513,1.319,-2.6245,4.0805,1.4593,-2.1327,2.4874,9.9229
1047,09:30:26.206,0.1004,13.0174,-0.1125,-6.8921,-0.5036,1.4253,-1.039,13.1325,8.74,19.759,-4.7019,0.7736,2.4524,8.3381,0.8769,-0.5968,0.5684,0.5755,1.8594,-2.4897,4.3128,1.4457,1.7518,3.7684,11.9651
1049,09:30:26.208,1.1249,14.2233,-2.4169,-8.5234,-1.8026,0.5907,-1.7561,12.0879,8.5185,20.1249,-4.5269,1.0936,2.5771,9.634,-0.0576,-2.1534,-0.7414,-1.2475,0.7897,-3.9203,2.5947,0.4705,3.4933,3.2246,11.0516
1051,09:30:26.210,0.2924,9.0378,-5.0972,-10.1146,-4.4542,-1.9041,-3.9181,8.974,7.199,19.148,-5.6911,-0.4213,2.8578,10.1213,-2.3761,-4.8926,-3.3058,-4.2689,-1.5707,-6.5786,-0.6237,-1.1179,2.6266,1.0554,8.0255
1053,09:30:26.212,-2.1761,-1.971,-8.0885,-10.5084,-7.9229,-5.3596,-6.7801,4.8428,5.3616,17.5478,-7.8434,-3.4845,3.3398,10.3338,-5.71,-8.3094,-6.4557,-7.9849,-4.6254,-9.8546,-4.4971,-3.2451,-0.5834,-2.1137,4.1278
1055,09:30:26.214,-6.1691,-16.0459,-11.8438,-9.4852,-11.8486,-9.3402,-9.8621,0.4165,3.0559,15.3833,-10.6443,-7.7602,3.1707,9.5696,-9.7947,-12.2031,-9.8359,-12.1901,-8.0506,-13.4528,-8.542,-6.1554,-5.4071,-5.6887,-0.0509
1057,09:30:26.216,-11.4707,-29.2691,-16.79,-7.9803,-16.1523,-13.7099,-13.1457,-4.0966,0.1135,12.3231,-13.8709,-12.7977,1.5573,6.7599,-14.4884,-16.5537,-13.4409,-16.9177,-11.7949,-17.3899,-12.697,-10.0044,-10.7614,-9.3721,-4.4731
1059,09:30:26.218,-17.068,-38.0491,-22.702,-7.3795,-20.719,-18.1388,-16.628,-8.4496,-3.2364,8.5739,-17.1528,-17.6749,-1.2443,2.3281,-19.4647,-21.0476,-17.1287,-21.9499,-15.646,-21.4878,-16.755,-14.4418,-15.2754,-12.9803,-8.7695
1061,09:30:26.220,-20.9783,-40.4851,-28.4632,-8.5181,-24.9615,-21.7419,-19.778,-11.8622,-6.1633,5.2918,-19.7832,-20.9837,-4.043,-1.4979,-23.9443,-24.814,-20.2002,-26.4338,-18.9116,-24.9795,-19.9166,-18.539,-17.5513,-16.0095,-11.7969
1063,09:30:26.222,-21.3259,-37.0172,-32.365,-11.1305,-27.7445,-23.3655,-21.532,-13.2398,-7.6597,3.9087,-21.0095,-21.519,-5.8476,-2.6021,-26.8279,-26.7221,-21.5652,-29.0842,-20.6263,-26.7315,-21.0673,-21.0768,-16.765,-17.4849,-12.2867
1065,09:30:26.224,-18.0809,-30.0252,-32.7985,-14.0472,-27.9209,-22.3681,-20.9436,-11.9529,-7.2152,5.0166,-20.6283,-19.2231,-6.8341,-1.0125,-27.2336,-26.0644,-20.4625,-28.9241,-20.1686,-25.9785,-19.6044,-21.0256,-13.3568,-16.4565,-9.9798
1067,09:30:26.226,-13.8034,-22.5744,-29.0203,-15.8988,-25.1826,-19.2333,-17.9812,-8.4668,-5.2013,7.8929,-19.2439,-15.4621,-8.1245,1.2492,-25.0455,-23.1051,-17.164,-25.9823,-17.7697,-22.9677,-16.0659,-18.0488,-9.1695,-12.8579,-6.1144
1069,09:30:26.228,-12.2547,-17.0153,-21.6232,-15.8573,-20.5261,-15.4557,-13.7851,-4.2845,-2.6972,11.0397,-17.8067,-12.2097,-10.5845,2.1801,-21.0287,-19.0617,-13.0345,-21.3623,-14.4821,-18.955,-11.9769,-12.8341,-6.5758,-7.9219,-2.7704
1071,09:30:26.230,-15.6454,-14.2063,-12.4348,-14.0467,-15.8161,-12.7283,-10.0853,-1.2381,-0.8759,13.1423,-16.8441,-10.7606,-13.8217,1.2559,-16.427,-15.4978,-9.8001,-16.6186,-11.6237,-15.513,-9.0039,-6.9704,-6.9857,-3.576,-1.5921
1073,09:30:26.232,-22.8176,-13.6357,-3.8323,-11.4633,-12.6737,-12.0095,-8.153,-0.5845,-0.3515,13.6371,-16.1996,-11.0925,-16.3411,-1.1109,-12.3869,-13.5177,-8.5277,-12.9465,-10.1098,-13.6495,-8.0523,-2.25,-9.8999,-1.1698,-2.8544
1075,09:30:26.234,-30.0928,-14.1213,2.1782,-9.4622,-11.5773,-13.134,-8.0846,-2.4092,-0.934,12.6406,-15.568,-12.37,-16.7007,-4.9537,-9.6347,-13.2979,-9.097,-10.7905,-10.1267,-13.3856,-8.9349,0.2414,-13.417,-0.6497,-5.4928
1077,09:30:26.236,-34.1544,-14.5763,4.5858,-9.0821,-11.9328,-15.2065,-9.0132,-5.6743,-1.9774,10.5693,-15.1959,-13.9635,-14.6438,-10.9133,-8.5286,-14.2649,-10.5732,-10.0625,-11.3062,-14.076,-10.7667,0.5329,-15.8425,-1.0011,-8.0118
1079,09:30:26.238,-34.4125,-14.5702,3.3764,-10.6037,-12.9806,-17.4155,-10.0634,-8.9166,-3.0356,7.8561,-15.8831,-15.9359,-11.2985,-18.9201,-9.2459,-15.7388,-12.1209,-10.6296,-13.1853,-15.1485,-12.7183,-0.7075,-16.9991,-1.5439,-9.6059
1081,09:30:26.240,-32.7946,-14.6058,-0.9104,-13.5951,-14.5951,-19.582,-11.1619,-11.1804,-4.2204,4.8885,-18.2035,-18.6208,-8.3826,-27.1797,-11.8033,-17.4821,-13.6148,-12.553,-15.5454,-16.5756,-14.5283,-3.0524,-18.1075,-2.7403,-10.6759
1083,09:30:26.242,-31.4191,-15.9408,-7.5506,-17.3252,-17.176,-22.0168,-12.9104,-12.5096,-5.8985,2.0745,-21.7735,-21.9061,-7.0942,-32.9342,-15.8677,-19.6628,-15.4106,-15.8561,-18.3613,-18.6479,-16.4077,-6.6439,-20.4825,-5.623,-12.328
1085,09:30:26.244,-30.5918,-19.7622,-15.5918,-21.1542,-20.8111,-24.886,-15.6623,-13.5972,-8.0363,-0.1128,-25.3777,-25.0512,-7.4688,-34.3499,-20.5974,-22.3019,-17.5893,-20.0831,-21.4503,-21.3099,-18.4874,-11.5855,-24.3305,-10.4311,-15.2557
1087,09:30:26.246,-29.0057,-25.993,-23.6168,-24.6143,-24.6881,-27.7403,-18.8015,-14.9158,-9.9263,-1.2255,-27.8211,-27.1696,-8.5419,-31.6401,-24.7769,-24.8104,-19.5271,-24.1484,-24.2051,-23.7966,-20.3706,-17.1013,-28.6401,-15.9447,-18.988
1089,09:30:26.248,-25.6,-32.6717,-29.8642,-27.2692,-27.4564,-29.6845,-21.0584,-16.1625,-10.671,-1.0877,-28.6175,-27.7778,-9.1068,-26.5245,-27.2569,-26.1712,-20.2835,-26.7414,-25.7441,-25.0276,-21.2571,-21.5355,-31.9767,-20.2868,-22.203
1091,09:30:26.250,-20.8846,-36.7658,-32.9271,-28.6473,-28.1991,-30.0073,-21.5713,-16.5407,-9.9765,-0.0144,-27.9031,-26.8597,-8.543,-20.8885,-27.436,-25.6592,-19.3986,-27.0417,-25.4148,-24.4151,-20.548,-23.4029,-33.2726,-22.3546,-23.7776
1093,09:30:26.252,-16.3732,-36.1251,-32.5505,-28.3904,-27.0237,-28.6418,-20.5623,-15.5388,-8.4311,1.3101,-25.8995,-24.5606,-7.196,-15.9261,-25.4659,-23.4047,-17.245,-25.1764,-23.2242,-22.2686,-18.3397,-22.5083,-32.0597,-22.3901,-23.5021
1095,09:30:26.254,-12.9928,-31.0281,-29.7592,-26.4763,-24.7375,-26.0553,-18.9159,-13.3751,-6.9733,2.3651,-22.695,-21.0276,-6.0801,-12.049,-22.0699,-20.2498,-14.59,-22.0407,-19.8145,-19.3987,-15.3213,-20.0063,-28.3699,-21.2446,-21.8104
1097,09:30:26.256,-10.383,-23.879,-26.0878,-23.3031,-22.069,-22.8006,-17.1982,-10.7097,-6.1089,3.3152,-18.5788,-16.6001,-6.1119,-9.0299,-18.1437,-17.0776,-11.9031,-18.6509,-16.0339,-16.3894,-12.2076,-17.3634,-22.7288,-19.3848,-19.0203
1099,09:30:26.258,-7.7773,-17.2596,-22.5545,-19.5889,-19.2932,-19.266,-15.2628,-8.0436,-5.6465,4.9217,-14.3713,-12.0008,-7.4212,-6.1382,-14.4227,-14.3144,-9.1696,-15.5961,-12.5137,-13.3332,-9.31,-15.2979,-16.2192,-16.8299,-15.1115
1101,09:30:26.260,-5.2333,-12.138,-19.2887,-16.1684,-16.5043,-15.805,-12.8157,-5.4863,-5.095,7.7729,-11.1506,-8.1265,-9.249,-2.5806,-11.3739,-12.02,-6.3083,-12.9945,-9.5736,-10.2177,-6.6316,-13.6671,-10.2422,-13.8812,-10.3072
1103,09:30:26.262,-3.6427,-7.8397,-16.0527,-13.741,-13.9838,-12.8873,-10.1132,-3.0252,-4.1738,11.5381,-9.5407,-5.5568,-10.5014,1.7094,-9.2472,-10.269,-3.5641,-10.838,-7.3719,-7.354,-4.2393,-12.1499,-5.899,-11.4251,-5.6042
1105,09:30:26.264,-3.5152,-3.5404,-12.9849,-12.6055,-12.0889,-10.9036,-7.8257,-0.8175,-2.9113,15.057,-9.3179,-4.2939,-10.5063,5.6481,-8.1214,-9.2487,-1.3393,-9.2562,-5.9895,-5.2221,-2.3745,-10.7782,-3.4445,-10.1697,-2.3541
1107,09:30:26.266,-4.0531,0.4834,-10.7252,-12.5092,-10.8102,-9.7719,-6.2084,0.9156,-1.3976,17.2709,-9.7793,-3.993,-9.3838,7.6571,-7.8772,-8.9501,0.3123,-8.4158,-5.3301,-3.8978,-1.1492,-9.7593,-2.3084,-9.6963,-1.1519
1109,09:30:26.268,-3.7126,3.1531,-9.8144,-12.7893,-9.6375,-8.8752,-4.6764,2.2228,0.3755,18.1078,-10.448,-4.3634,-7.8152,7.0537,-8.1792,-8.9157,1.8475,-8.232,-5.039,-2.8195,-0.2502,-8.9925,-1.6606,-8.6683,-1.2377
1111,09:30:26.270,-1.7303,3.8989,-10.0618,-12.7792,-8.0103,-7.5439,-2.4382,3.4976,2.3955,18.4595,-11.3352,-5.2551,-6.512,4.9066,-8.5724,-8.4743,3.786,-8.2842,-4.6603,-1.2845,0.8939,-8.0133,-1.0267,-6.2148,-1.1475
1113,09:30:26.272,0.9842,3.3562,-10.5747,-12.1556,-5.8848,-5.6606,0.4863,5.1224,4.4496,19.3023,-12.5417,-6.4232,-5.8668,3.4268,-8.6668,-7.2921,6.1347,-8.0722,-3.9443,0.8284,2.5784,-6.4649,-0.5291,-2.9863,0.0021
1115,09:30:26.274,2.4706,2.6642,-10.4142,-10.9359,-3.7884,-3.7762,3.079,7.0248,6.1236,20.8032,-13.7833,-7.44,-5.9642,4.2651,-8.2845,-5.6692,8.3108,-7.3712,-3.0052,2.9119,4.4674,-4.5002,-0.7216,-0.6109,1.8403
1117,09:30:26.276,1.1853,2.2654,-9.2386,-9.2379,-2.3388,-2.647,4.233,8.5756,6.9289,22.1461,-14.493,-8.0454,-6.7302,7.0597,-7.4866,-4.2892,9.5967,-6.3648,-2.1922,4.1963,5.7846,-2.6364,-2.205,-0.1048,3.1787
1119,09:30:26.278,-2.987,1.6322,-7.4223,-7.1975,-1.8011,-2.6863,3.7462,8.916,6.4272,22.1123,-14.4169,-8.5632,-7.9362,9.4329,-6.5209,-3.7142,9.6054,-5.4931,-1.8434,4.3696,5.8555,-1.2964,-5.1676,-1.0057,2.9461
1121,09:30:26.280,-8.7612,0.1881,-5.71,-5.1711,-2.0955,-3.7986,2.3515,7.5008,4.4352,19.9704,-13.9789,-9.7342,-9.0715,8.6559,-5.7458,-4.0884,8.388,-5.1889,-2.1434,3.6433,4.5369,-0.6074,-9.0101,-2.105,0.8294
1123,09:30:26.282,-14.14,-1.6981,-4.78,-3.8339,-3.0374,-5.5349,0.9356,4.6017,1.4124,16.2175,-13.9043,-11.8925,-9.376,4.0507,-5.4981,-5.1551,6.3447,-5.654,-3.0738,2.4122,2.3109,-0.5886,-12.3792,-2.7509,-2.528
1125,09:30:26.284,-17.2169,-2.7949,-4.9416,-3.7574,-4.3534,-7.2243,-0.0247,1.5278,-1.2734,12.785,-14.4352,-14.2662,-8.2087,-1.6065,-5.8626,-6.3596,4.2258,-6.7079,-4.3211,1.0876,0.1412,-1.2963,-13.845,-3.1351,-5.5626
1127,09:30:26.286,-16.9086,-2.1027,-5.9732,-4.7039,-5.4807,-8.0159,-0.2799,0.2524,-1.7962,12.3175,-14.9603,-15.2644,-5.5297,-3.2473,-6.4682,-6.9405,3.0895,-7.7582,-5.2045,0.2458,-0.823,-2.5989,-12.893,-3.4013,-6.2037
1129,09:30:26.288,-13.4868,0.1195,-7.1558,-5.4304,-5.628,-7.1173,0.5399,2.331,0.8958,16.5153,-14.4752,-13.692,-2.0454,2.8189,-6.5762,-6.1879,3.8446,-8.026,-4.8836,0.6091,0.2558,-3.8806,-10.3552,-2.9644,-2.9752
1131,09:30:26.290,-8.4774,2.3089,-7.6425,-4.4445,-4.3251,-4.3175,2.685,7.6426,6.0148,24.48,-12.4315,-9.8172,1.203,15.2114,-5.5498,-3.9293,6.484,-7.0278,-2.9001,2.5244,3.3159,-4.2274,-7.6809,-1.0959,3.6686
1133,09:30:26.292,-3.6558,2.5405,-7.051,-1.1509,-1.9611,-0.336,5.6886,14.0519,11.2422,32.6231,-9.1608,-5.239,3.527,27.232,-3.3802,-0.8443,9.7753,-4.9861,0.3709,5.409,7.2026,-3.1126,-5.5498,1.9338,11.1051
