,TIME,FP1,FP2,F3,F4,C3,C4,P3,P4,O1,O2,F7,F8,P7,P8,Fz,Cz,Pz,FC1,FC2,CP1,CP2,FC5,FC6,CP5,CP6,EMG1,EMG2,IO,EMG3,EMG4,LShankACCX,LShankACCY,LShankACCZ,LShankGYROX,LShankGYROY,LShankGYROZ,NC,RShankACCX,RShankACCY,RShankACCZ,RShankGYROX,RShankGYROY,RShankGYROZ,NC,WaistACCX,WaistACCY,WaistACCZ,WaistGYROX,WaistGYROY,WaistGYROZ,NC,ArmACCX,ArmACCY,ArmACCZ,ArmGYROX,ArmGYROY,ArmGYROZ,SC
0,09:30:34,23.0012,20.4092,29.4948,34.8449,27.6257,24.0548,30.656,31.9634,52.8235,22.4179,20.2169,23.2926,27.051,29.752,26.5079,33.8038,42.5598,27.5946,56.2375,26.4416,43.1291,23.3471,27.6655,27.8509,36.5859,3509.5,-2176.5,-22.5,-1180.5,-3832.0,7738.0,-782.0,-3465.0,-115.0,-10.000000000000002,-3.0,76.99999999999999,7738.0,-782.0,-3465.0,-115.0,-10.000000000000002,-3.0,76.99999999999999,-645.0,5326.000000000001,5984.0,44.0,64.0,9.0,1624.0000000000002,-645.0,5326.000000000001,5984.0,44.0,64.0,9.0,1624.0000000000002
1,09:30:34.002,26.6947,23.1909,32.2155,38.6279,30.2613,27.4437,33.0281,33.9178,53.082,22.6293,25.4072,27.3037,28.2002,30.6278,30.452,36.5842,44.9622,31.1582,62.3629,28.5056,46.6691,27.5373,30.3328,30.9926,37.9339,3495.0,-2056.5,-22.0,-1565.5,-3813.0,7734.641596969577,-779.2757909925812,-3463.626077957871,-115.23068000933807,-9.60033622683169,-2.56585134068009,76.99999999999999,7734.641596969577,-779.2757909925812,-3463.626077957871,-115.23068000933807,-9.60033622683169,-2.56585134068009,76.99999999999999,-650.0425927939449,5330.363736295985,5973.857166960024,44.19405616858579,63.89642845747717,8.38654619039334,1624.206872769273,-650.0425927939449,5330.363736295985,5973.857166960024,44.19405616858579,63.89642845747717,8.38654619039334,1624.206872769273
2,09:30:34.004,28.5676,24.913,34.0392,41.3227,31.8886,29.8637,34.4277,35.4297,52.6578,23.9481,28.7481,29.8883,28.9654,30.361,33.2225,38.7048,46.3532,33.7261,67.1644,29.6315,49.2546,30.9147,31.5661,32.3067,39.5721,3473.0,-1782.0,-22.5,-1532.5,-3805.0,7733.396321693921,-776.1069986250076,-3462.10287985857,-115.27597217597666,-8.878957997026424,-2.107891242607973,77.0,7733.396321693921,-776.1069986250076,-3462.10287985857,-115.27597217597666,-8.878957997026424,-2.107891242607973,77.0,-656.5249380954172,5337.339262061363,5961.169992877089,44.58789865387494,63.677672935272255,7.824043687479065,1624.46771401572,-656.5249380954172,5337.339262061363,5961.169992877089,44.58789865387494,63.677672935272255,7.824043687479065,1624.46771401572
3,09:30:34.006,26.6439,23.186,32.5404,40.5585,30.2223,29.122,32.3996,34.0969,49.0358,23.2891,28.0157,28.7229,27.6985,26.4799,32.5191,37.7862,44.1256,32.8772,68.0785,27.5455,48.4839,31.2163,29.3594,29.5775,38.8563,3454.5,-1323.5,-24.0,-1260.0,-3803.5,7733.530247933476,-773.0003107611448,-3460.566642780333,-115.20592433794629,-8.057411653805758,-1.6670054741960254,77.00000000000001,7733.530247933476,-773.0003107611448,-3460.566642780333,-115.20592433794629,-8.057411653805758,-1.6670054741960254,77.00000000000001,-663.1859869999139,5345.632919678744,5948.154235314147,45.08471305487094,63.41070318432892,7.368268089368346,1624.72511887753,-663.1859869999139,5345.632919678744,5948.154235314147,45.08471305487094,63.41070318432892,7.368268089368346,1624.72511887753
4,09:30:34.008,20.4778,17.05,26.8233,35.4699,24.3077,24.3542,26.0274,28.7701,41.2968,19.0305,22.7467,23.2324,23.249,18.4075,27.5023,32.8571,37.2842,27.652,64.163,21.4035,43.3104,27.2595,23.3541,22.2079,34.1426,3440.0,-1093.5,-25.0,-1179.5,-3804.0,7734.309449448687,-770.4624152648533,-3459.1536038013974,-115.09058433327722,-7.357243540389744,-1.2840798038558603,76.99999999999999,7734.309449448687,-770.4624152648533,-3459.1536038013974,-115.09058433327722,-7.357243540389744,-1.2840798038558603,76.99999999999999,-668.7646906029429,5353.951051530753,5937.02565183413,45.58768497057818,63.16248895559026,7.074994994171584,1624.9216824928933,-668.7646906029429,5353.951051530753,5937.02565183413,45.58768497057818,63.16248895559026,7.074994994171584,1624.9216824928933
5,09:30:34.010,12.3434,8.5579,18.9184,28.0509,16.0788,17.2759,17.4364,21.104,31.4544,12.7116,15.2876,15.5894,17.0606,8.4207,20.0737,25.7752,27.9126,20.0271,57.2818,13.2447,35.469,20.5315,15.5926,12.8009,26.5896,3433.0,-1035.5,-26.0,-1316.0,-3804.5,7734.999999999998,-769.0,-3457.9999999999995,-115.0,-7.0,-1.0,76.99999999999999,7734.999999999998,-769.0,-3457.9999999999995,-115.0,-7.0,-1.0,76.99999999999999,-672.0,5361.0,5930.0,46.0,63.0,6.999999999999999,1624.9999999999995,-672.0,5361.0,5930.0,46.0,63.0,6.999999999999999,1624.9999999999995
6,09:30:34.012,5.8715,1.5495,12.4195,21.8087,9.1722,10.9529,10.3784,14.2571,23.0622,7.3717,9.2688,9.1335,12.6694,-0.3595,13.608,19.8868,19.6496,13.594,50.6781,6.6251,28.2052,14.3414,9.1833,5.6883,18.9857,3433.5,-715.0,-26.0,-1357.0,-3801.0,7735.096488788548,-768.9313192113867,-3457.2669340032203,-114.98525847426046,-7.1423331926076825,-0.8437055040609832,76.99999999999999,7735.096488788548,-768.9313192113867,-3457.2669340032203,-114.98525847426046,-7.1423331926076825,-0.8437055040609832,76.99999999999999,-672.0317549086836,5365.75867566914,5928.565299532927,46.25433799959699,62.967667063683024,7.176247965137212,1624.921796731052,-672.0317549086836,5365.75867566914,5928.565299532927,46.25433799959699,62.967667063683024,7.176247965137212,1624.921796731052
7,09:30:34.014,3.1513,-1.5257,9.4956,18.8281,5.8973,7.229,7.1063,10.1185,18.4521,4.8511,6.6116,5.597,12.6056,-6.3546,10.1518,17.1276,14.6126,10.5295,46.2284,3.5917,23.5212,11.0355,5.9586,3.4342,13.1558,3302.0,-61.0,-26.5,-1340.0,-3793.5,7735.007566778232,-769.8208926675776,-3457.214970633523,-115.02160408466692,-7.681318545187065,-0.7963504495548714,77.0,7735.007566778232,-769.8208926675776,-3457.214970633523,-115.02160408466692,-7.681318545187065,-0.7963504495548714,77.0,-669.6033495349611,5368.296261920924,5931.298618787035,46.40135585565405,63.01976487349117,7.545460788558207,1624.725318794308,-669.6033495349611,5368.296261920924,5931.298618787035,46.40135585565405,63.01976487349117,7.545460788558207,1624.725318794308
8,09:30:34.016,3.1621,-1.5679,9.2676,18.2378,5.4299,5.512,6.7182,8.0852,17.3403,5.0671,6.031,3.9639,15.7818,-9.722,8.9114,16.5979,11.9561,9.939,43.2093,3.122,20.8562,10.0205,5.3423,4.8211,9.0417,2547.0,622.5,-28.0,-1353.0,-3779.0,7735.370400373644,-771.0448065180742,-3458.129540262216,-115.0653204579431,-8.449137301462208,-0.8271426430182448,77.00000000000001,7735.370400373644,-771.0448065180742,-3458.129540262216,-115.0653204579431,-8.449137301462208,-0.8271426430182448,77.00000000000001,-665.859066706899,5368.954510338138,5936.049288274679,46.5212047119126,63.08802915145775,8.026549629410354,1624.4679424920373,-665.859066706899,5368.954510338138,5936.049288274679,46.5212047119126,63.08802915145775,8.026549629410354,1624.4679424920373
9,09:30:34.018,3.1748,-1.5007,9.1762,17.6586,5.1132,4.1325,6.626,6.5489,17.946,7.4072,4.6935,2.1287,18.2967,-10.8758,7.5956,16.0753,9.4423,9.2809,39.7958,2.6509,18.5147,8.6982,5.4898,6.4398,6.2501,1584.5,728.5,-30.0,-1313.5,-3763.5,7736.822155979368,-771.9791469123809,-3460.296073260606,-115.07269122081286,-9.27797070515859,-0.9052898909877664,76.99999999999999,7736.822155979368,-771.9791469123809,-3460.296073260606,-115.07269122081286,-9.27797070515859,-0.9052898909877664,76.99999999999999,-661.9431892525562,5368.075172503567,5940.666638508215,46.694035712114186,63.10419561961621,8.538425646841892,1624.2070441265112,-661.9431892525562,5368.075172503567,5940.666638508215,46.694035712114186,63.10419561961621,8.538425646841892,1624.2070441265112
10,09:30:34.020,1.6749,-3.0437,7.8259,16.0151,3.4386,2.631,5.4677,5.1659,19.1065,11.8831,1.39,-0.4795,17.0834,-9.7174,5.1494,14.7171,6.1402,7.2899,35.5346,0.982,16.0873,5.3998,5.4641,6.2007,5.7322,523.0,427.5,-31.0,-1199.0,-3748.0,7739.999999999998,-771.9999999999999,-3463.999999999999,-115.0,-9.999999999999998,-0.9999999999999998,76.99999999999999,7739.999999999998,-771.9999999999999,-3463.999999999999,-115.0,-9.999999999999998,-0.9999999999999998,76.99999999999999,-659.0000000000001,5365.999999999999,5942.999999999999,47.0,63.0,9.0,1624.0,-659.0000000000001,5365.999999999999,5942.999999999999,47.0,63.0,9.0,1624.0
11,09:30:34.022,-0.1769,-4.9409,6.3306,14.6996,1.5602,2.394,4.3797,5.3038,21.1093,18.5614,-2.0599,-2.1186,12.7639,-6.3744,2.9737,14.0087,3.3512,5.2964,32.074,-0.5166,15.1327,1.2941,6.2151,5.1435,9.2045,-695.0,295.0,-32.5,-1043.0,-3738.5,7745.292447876224,-770.6629321618708,-3469.2981860292457,-114.81228609362,-10.486331002737863,-1.0833266430758024,76.99999999999999,7745.292447876224,-770.6629321618708,-3469.2981860292457,-114.81228609362,-10.486331002737863,-1.0833266430758024,76.99999999999999,-657.9583875713209,5363.129561027457,5941.561634908266,47.49259183302663,62.72890328779064,9.348461949057995,1623.8899403065168,-657.9583875713209,5363.129561027457,5941.561634908266,47.49259183302663,62.72890328779064,9.348461949057995,1623.8899403065168
12,09:30:34.024,0.1323,-4.34,6.9531,16.0113,1.9345,5.0607,5.5423,8.3828,24.7144,26.4499,-2.5648,-0.5076,8.8651,-1.7865,3.4708,16.1116,3.0614,5.7303,31.5029,0.5014,17.5178,-0.6431,9.4627,5.9503,16.9005,-1461.5,473.5,-34.0,-994.5,-3735.0,7752.093411193144,-768.2414307046812,-3475.333237607337,-114.50961148535552,-10.76376782222627,-1.1387069591723435,77.0,7752.093411193144,-768.2414307046812,-3475.333237607337,-114.50961148535552,-10.76376782222627,-1.1387069591723435,77.0,-658.8856637647365,5360.099690254943,5937.515531974767,48.11867792350958,62.33126757076288,9.594113158288756,1623.8630108070474,-658.8856637647365,5360.099690254943,5937.515531974767,48.11867792350958,62.33126757076288,9.594113158288756,1623.8630108070474
13,09:30:34.026,3.9721,0.3454,10.7418,20.7667,5.7996,10.6454,9.8614,14.2306,29.8574,33.7693,1.2877,4.8948,8.3673,3.2649,7.6434,21.6233,5.9089,9.6523,34.285,4.9497,23.4472,1.5992,15.7809,10.1005,26.4636,-2352.0,888.5,-34.0,-1121.0,-3735.0,7759.548150571945,-765.1884631665577,-3481.0191961708024,-114.10079383028123,-10.898039140345697,-1.152423953730973,77.00000000000001,7759.548150571945,-765.1884631665577,-3481.0191961708024,-114.10079383028123,-10.898039140345697,-1.152423953730973,77.00000000000001,-661.6337461724902,5357.605038968703,5932.6886115871375,48.79846809747887,61.86918020984006,9.765533392990443,1623.8911111543196,-661.6337461724902,5357.605038968703,5932.6886115871375,48.79846809747887,61.86918020984006,9.765533392990443,1623.8911111543196
14,09:30:34.028,10.4864,8.0866,16.6901,27.6409,12.1929,17.4668,16.2622,21.2614,35.552,39.4907,8.1468,12.4927,11.2032,9.523,14.2876,29.1472,10.8194,15.9452,38.9996,11.6363,31.3247,7.4353,23.8749,16.6806,34.5266,-3213.5,1385.0,-32.5,-1323.5,-3732.5,7766.801926633834,-761.9569970856213,-3485.2701031561805,-113.59465078347104,-10.95487363897681,-1.110760632193056,76.99999999999999,7766.801926633834,-761.9569970856213,-3485.2701031561805,-113.59465078347104,-10.95487363897681,-1.110760632193056,76.99999999999999,-666.054552386831,5356.340258454973,5928.907794133003,49.45217218096573,61.4047285659446,9.8913024184615,1623.9461410010608,-666.054552386831,5356.340258454973,5928.907794133003,49.45217218096573,61.4047285659446,9.8913024184615,1623.9461410010608
15,09:30:34.030,17.6827,16.4667,22.9951,34.6376,19.198,23.7647,22.9599,27.9651,40.8425,44.0985,15.5065,20.1748,15.0237,18.7449,21.3474,36.8048,16.2754,22.6806,43.8899,18.6716,39.3054,14.6204,31.6482,23.6196,39.3694,-3383.0,1767.5,-30.5,-1406.0,-3728.5,7773.000000000001,-759.0000000000001,-3487.0,-112.99999999999996,-10.999999999999996,-1.0,76.99999999999999,7773.000000000001,-759.0000000000001,-3487.0,-112.99999999999996,-10.999999999999996,-1.0,76.99999999999999,-671.9999999999999,5357.0,5928.000000000001,49.99999999999999,61.0,10.0,1623.9999999999998,-671.9999999999999,5357.0,5928.000000000001,49.99999999999999,61.0,10.0,1623.9999999999998
16,09:30:34.032,24.134,23.7792,28.6977,40.7702,25.6563,29.0198,28.9362,33.7946,45.4794,48.4208,21.9409,26.9568,17.9537,31.2615,27.6591,43.7322,21.4541,28.8035,48.2882,25.0481,46.5683,21.39,37.7863,29.4867,41.8202,-3619.5,1987.5,-28.5,-1224.0,-3719.0,7777.437719706552,-756.7209521411276,-3485.5483218798,-112.32559715125907,-11.08834279644129,-0.8229879236358063,76.99999999999999,7777.437719706552,-756.7209521411276,-3485.5483218798,-112.32559715125907,-11.08834279644129,-0.8229879236358063,76.99999999999999,-679.1506948060339,5359.8590802210265,5931.156160834004,50.38329466829706,60.70871978515408,10.117904238631157,1624.03044204288,-679.1506948060339,5359.8590802210265,5931.156160834004,50.38329466829706,60.70871978515408,10.117904238631157,1624.03044204288
17,09:30:34.034,29.469,29.7487,33.8947,46.1499,31.4439,33.5794,34.0462,38.6042,49.5859,51.932,27.5787,32.9582,20.212,44.3457,33.2182,49.9989,26.0583,34.3069,52.4471,30.7001,53.0068,27.418,42.2389,33.9009,43.6055,-3768.0,2145.0,-27.5,-998.0,-3707.0,7780.010788449204,-755.3253845136925,-3481.956078937136,-111.5799499739099,-11.231610165908586,-0.6488217137557528,77.0,7780.010788449204,-755.3253845136925,-3481.956078937136,-111.5799499739099,-11.231610165908586,-0.6488217137557528,77.0,-686.5019954060983,5363.512977059294,5937.023253313891,50.62793245030896,60.55116484345648,10.262086578287416,1624.0386379775027,-686.5019954060983,5363.512977059294,5937.023253313891,50.62793245030896,60.55116484345648,10.262086578287416,1624.0386379775027
18,09:30:34.036,33.5724,34.5495,38.6222,50.7676,36.4127,37.3131,38.0897,41.711,52.9613,52.7643,32.7265,38.1345,23.1448,53.6689,38.0568,55.4703,29.4886,39.1162,56.3208,35.4299,58.1015,32.8803,45.3473,36.6738,45.1403,-3783.0,2237.0,-26.0,-997.5,-3690.5,7780.76499733858,-754.9693408156938,-3477.689675054575,-110.7715042209316,-11.430706137155145,-0.5631615420578614,77.00000000000001,7780.76499733858,-754.9693408156938,-3477.689675054575,-110.7715042209316,-11.430706137155145,-0.5631615420578614,77.00000000000001,-692.8779486031423,5366.137333787048,5943.612265376769,50.78092289817224,60.53925000918185,10.447316798628018,1624.031612890686,-692.8779486031423,5366.137333787048,5943.612265376769,50.78092289817224,60.53925000918185,10.447316798628018,1624.031612890686
19,09:30:34.038,35.8905,37.7022,42.0184,53.7088,39.6463,39.083,40.3257,41.9967,55.0282,49.6129,36.6241,41.5211,27.2056,56.66,41.3742,59.2675,30.7029,42.3642,58.9431,38.3485,60.622,37.1297,46.8252,37.2412,45.1167,-3663.5,2391.5,-24.0,-831.0,-3678.5,7779.746137485303,-755.8088647451302,-3474.215514114674,-109.90870564530177,-11.686534738934585,-0.651667580240008,76.99999999999999,7779.746137485303,-755.8088647451302,-3474.215514114674,-109.90870564530177,-11.686534738934585,-0.651667580240008,76.99999999999999,-697.1026012001265,5365.907793676535,5948.934184959768,50.88927556402376,60.684890116604855,10.688364679312524,1624.0163918692456,-697.1026012001265,5365.907793676535,5948.934184959768,50.88927556402376,60.684890116604855,10.688364679312524,1624.0163918692456
20,09:30:34.040,35.8074,38.2385,42.8308,53.7898,40.0533,37.6968,40.0754,38.9865,55.468,43.3394,37.8648,41.9154,31.2949,54.2774,42.0278,60.4905,29.0183,43.0057,59.1166,38.5745,59.5951,38.7355,45.8154,35.1829,42.0769,-3458.5,2528.0,-22.0,-765.5,-3670.0,7776.999999999999,-757.9999999999999,-3472.999999999999,-109.0,-12.0,-1.0000000000000004,76.99999999999999,7776.999999999999,-757.9999999999999,-3472.999999999999,-109.0,-12.0,-1.0000000000000004,76.99999999999999,-698.0000000000001,5361.0,5950.999999999999,51.00000000000001,61.0,10.999999999999998,1624.0,-698.0000000000001,5361.0,5950.999999999999,51.00000000000001,61.0,10.999999999999998,1624.0
21,09:30:34.042,33.5171,35.7913,40.6303,50.8005,37.5421,33.2112,37.5564,33.5536,54.658,36.3665,35.8736,39.1385,33.9648,49.4359,39.7335,59.2224,24.8297,40.9469,56.5241,36.2403,55.3605,36.8469,41.9388,31.0086,36.1124,-3244.0,2620.5,-20.0,-631.5,-3666.5,7772.764673297567,-761.5092592736175,-3475.0125264515527,-108.06932530134269,-12.36829781149723,-1.6567216623809944,76.99999999999999,7772.764673297567,-761.5092592736175,-3475.0125264515527,-108.06932530134269,-12.36829781149723,-1.6567216623809944,76.99999999999999,-694.8948332045487,5350.354118088439,5948.501721755714,51.15822949378548,61.4682175715929,11.387921096417648,1623.988291521963,-694.8948332045487,5350.354118088439,5948.501721755714,51.15822949378548,61.4682175715929,11.387921096417648,1623.988291521963
22,09:30:34.044,30.1629,31.2053,36.3091,45.8815,33.3224,27.1012,33.8387,27.3647,53.296,30.5306,31.633,34.4049,34.8034,44.0146,35.5217,56.5623,19.3469,37.2769,52.0025,32.5056,49.4659,32.2427,36.1225,26.07,29.0301,-3101.0,2791.5,-18.5,-460.5,-3666.5,7768.047435010044,-765.5450312405477,-3479.2344466441136,-107.20258861900278,-12.77379151413996,-2.52200618580482,77.0,7768.047435010044,-765.5450312405477,-3479.2344466441136,-107.20258861900278,-12.77379151413996,-2.52200618580482,77.0,-689.1143546108812,5335.9684015078765,5942.855454769678,51.40159227525536,61.96007305541106,11.821540528562162,1623.9824372829414,-689.1143546108812,5335.9684015078765,5942.855454769678,51.40159227525536,61.96007305541106,11.821540528562162,1623.9824372829414
23,09:30:34.046,26.944,25.9453,31.3494,40.6467,28.9678,21.1469,29.9618,21.679,51.6461,25.747,26.85,29.4123,34.3597,37.649,30.9296,53.6934,13.662,33.3352,46.7985,28.5584,43.5385,26.8311,30.221,21.6507,23.0996,-3072.5,2744.5,-17.5,-324.0,-3666.0,7764.047860073735,-769.1261735706671,-3484.150103610893,-106.50118928599188,-13.195136311033874,-3.4589298780376803,77.00000000000001,7764.047860073735,-769.1261735706671,-3484.150103610893,-106.50118928599188,-13.195136311033874,-3.4589298780376803,77.00000000000001,-682.4864594149429,5320.605625883102,5936.1583269057855,51.76584030983236,62.31781975343256,12.26119941249764,1623.982437282938,-682.4864594149429,5320.605625883102,5936.1583269057855,51.76584030983236,62.31781975343256,12.26119941249764,1623.982437282938
24,09:30:34.048,24.1477,20.9969,26.7152,36.033,25.2842,16.2392,26.2481,16.7467,49.2966,20.717,22.5407,25.1328,32.9231,29.1231,26.8351,51.08,8.1634,29.6954,41.6971,24.763,38.3416,22.1468,25.7111,18.2797,19.6961,-3163.0,2464.5,-16.5,-229.0,-3661.0,7761.965523424949,-771.2715439338588,-3488.243840385117,-106.0665266353204,-13.610987405285393,-4.330569046847436,76.99999999999999,7761.965523424949,-771.2715439338588,-3488.243840385117,-106.0665266353204,-13.610987405285393,-4.330569046847436,76.99999999999999,-676.8390428126671,5307.02856683888,5930.507466027927,52.28672556293979,62.38371096763609,12.66723886428894,1623.9882915219564,-676.8390428126671,5307.02856683888,5930.507466027927,52.28672556293979,62.38371096763609,12.66723886428894,1623.9882915219564
25,09:30:34.050,21.1464,16.4098,22.484,31.9766,22.1054,12.193,22.4998,12.2202,45.6879,14.5499,18.5085,21.4343,29.8484,18.2964,23.1021,48.5699,2.7649,26.1088,36.8309,20.8204,33.8233,18.4274,22.6922,15.8772,18.8027,-3330.0,2259.5,-17.5,-75.5,-3651.5,7763.0,-771.0,-3490.0,-106.0,-13.999999999999996,-4.999999999999998,76.99999999999999,7763.0,-771.0,-3490.0,-106.0,-13.999999999999996,-4.999999999999998,76.99999999999999,-674.0,5298.0,5928.000000000001,53.0,61.99999999999999,12.999999999999996,1624.0,-674.0,5298.0,5928.000000000001,53.0,61.99999999999999,12.999999999999996,1624.0
26,09:30:34.052,17.2889,11.8016,18.3823,27.9912,18.9963,8.4714,18.6741,7.8841,40.8019,7.4688,14.0375,17.6702,24.3457,6.4762,19.2069,46.0455,-2.5298,22.2607,32.091,16.5629,29.8046,15.0706,20.1149,14.2577,19.3471,-3503.5,2056.0,-18.5,82.5,-3637.0,7767.839587103167,-767.7460107644039,-3488.377572313985,-106.3491016433693,-14.342465957570218,-5.366125426840934,76.99999999999999,7767.839587103167,-767.7460107644039,-3488.377572313985,-106.3491016433693,-14.342465957570218,-5.366125426840934,76.99999999999999,-675.2139723757692,5295.6044474252085,5930.108952143133,53.9197873565615,61.07440992847445,13.226411375698683,1624.0163918692672,-675.2139723757692,5295.6044474252085,5930.108952143133,53.9197873565615,61.07440992847445,13.226411375698683,1624.0163918692672
27,09:30:34.054,12.6998,7.1352,14.4636,23.8713,15.9356,4.9054,15.1796,3.9483,35.3329,0.2645,8.861,13.4925,16.8165,-4.5238,15.0312,43.7723,-7.3854,18.371,27.5375,12.389,26.454,11.7293,16.9626,13.2593,19.916,-3618.5,1984.5,-19.5,117.0,-3621.0,7775.127471510615,-762.6064905241204,-3484.234134486412,-106.94569555007742,-14.625223777532502,-5.471153543026582,77.0,7775.127471510615,-762.6064905241204,-3484.234134486412,-106.94569555007742,-14.625223777532502,-5.471153543026582,77.0,-679.3925861503709,5299.213416909176,5935.810927607396,54.973698448670746,59.77654293489941,13.339751307464828,1624.0316128907318,-679.3925861503709,5299.213416909176,5935.810927607396,54.973698448670746,59.77654293489941,13.339751307464828,1624.0316128907318
28,09:30:34.056,8.2395,2.9756,11.2259,19.9059,13.3305,1.8156,12.5533,0.9022,30.3272,-6.3161,3.4542,9.1965,9.1454,-13.0089,11.0593,42.177,-11.2868,15.0625,23.4816,8.9673,24.2266,8.7838,13.248,12.5432,19.5553,-3632.0,2086.0,-21.0,263.0,-3609.5,7782.995562366477,-757.0939649016383,-3478.90191050185,-107.56773863510055,-14.836748618709576,-5.393118945791821,77.00000000000001,7782.995562366477,-757.0939649016383,-3478.90191050185,-107.56773863510055,-14.836748618709576,-5.393118945791821,77.00000000000001,-684.8642137370847,5307.520162680536,5943.458427000088,56.06771586249872,58.34147097708786,13.339885551381624,1624.038637977563,-684.8642137370847,5307.520162680536,5943.458427000088,56.06771586249872,58.34147097708786,13.339885551381624,1624.038637977563
29,09:30:34.058,4.8512,0.124,9.2204,16.6673,11.6008,-0.2809,11.049,-0.6337,26.7694,-11.425,-1.3537,5.5422,3.5397,-17.2021,7.9997,41.5243,-13.7126,12.8525,20.3832,6.7383,23.6086,6.8501,9.9759,11.6726,18.4119,-3544.0,2307.0,-24.5,372.0,-3598.0,7789.575768814895,-752.7209595194352,-3473.713124344856,-107.993187813416,-14.965515639924512,-5.210056232371322,76.99999999999999,7789.575768814895,-752.7209595194352,-3473.713124344856,-107.993187813416,-14.965515639924512,-5.210056232371322,76.99999999999999,-689.9572275492011,5319.217938967933,5951.403950928524,57.1078221842183,57.00426601285025,13.22667986353225,1624.0304420429293,-689.9572275492011,5319.217938967933,5951.403950928524,57.1078221842183,57.00426601285025,13.22667986353225,1624.0304420429293
30,09:30:34.060,3.0562,-0.8843,8.687,14.7525,10.9371,-0.9178,10.636,0.0201,25.3919,-13.844,-4.8175,3.3846,1.0891,-15.382,6.3663,41.9214,-14.172,11.9159,18.762,5.8206,24.997,6.1124,8.2753,10.618,17.7708,-3385.5,2597.5,-27.5,268.0,-3593.0,7793.000000000001,-751.0,-3470.000000000001,-108.0,-15.000000000000002,-5.0,76.99999999999999,7793.000000000001,-751.0,-3470.000000000001,-108.0,-15.000000000000002,-5.0,76.99999999999999,-693.0,5333.000000000001,5958.000000000001,58.0,56.0,13.0,1624.0,-693.0,5333.000000000001,5958.000000000001,58.0,56.0,13.0,1624.0
31,09:30:34.062,2.9686,0.0099,9.5345,14.6152,11.3978,0.2241,11.2738,3.303,26.5447,-12.6056,-6.4064,3.3446,1.3881,-7.186,6.3484,43.4856,-12.3227,12.2431,19.0562,6.2552,28.622,6.2941,8.6235,10.0397,19.2065,-3222.5,2757.0,-30.5,205.5,-3592.0,7791.94097828977,-752.9626976687646,-3468.685184292505,-107.44626812518018,-14.93383835822223,-4.8307766302556105,76.99999999999999,7791.94097828977,-752.9626976687646,-3468.685184292505,-107.44626812518018,-14.93383835822223,-4.8307766302556105,76.99999999999999,-692.809277292375,5347.604092210726,5961.998469671759,58.65862107996961,55.49814271450827,12.66643340078776,1623.9461410009687,-692.809277292375,5347.604092210726,5961.998469671759,58.65862107996961,55.49814271450827,12.66643340078776,1623.9461410009687
32,09:30:34.064,4.5238,2.4784,11.5064,16.3752,13.0061,3.1757,12.9818,8.8774,29.9578,-8.2268,-5.83,5.5515,3.3165,5.0444,7.8526,46.2645,-8.2945,13.7839,21.332,8.0869,34.3098,7.1537,10.7976,10.7768,23.3136,-3111.5,2714.0,-32.5,192.0,-3592.5,7787.234678947509,-757.7170066629643,-3469.053015410233,-106.5106291806878,-14.781313375730573,-4.729379642089241,77.0,7787.234678947509,-757.7170066629643,-3469.053015410233,-106.5106291806878,-14.781313375730573,-4.729379642089241,77.0,-690.15530078764,5361.945930855429,5963.748834800754,59.03161393006389,55.40575520498896,12.25945424157863,1623.891111154132,-690.15530078764,5361.945930855429,5963.748834800754,59.03161393006389,55.40575520498896,12.25945424157863,1623.891111154132
33,09:30:34.066,7.4747,5.9652,14.2468,19.6185,15.5921,7.4684,15.5781,15.4234,34.6167,-3.0913,-3.2209,9.5073,5.9525,16.7881,10.4955,49.9167,-2.9233,16.3011,25.0239,11.1034,41.2467,8.744,14.3276,12.9304,29.0804,-3085.0,2691.0,-34.0,253.5,-3593.0,7780.257890460365,-763.8899668227785,-3469.9782543817087,-105.45185617360596,-14.561869214127908,-4.71259433879508,77.00000000000001,7780.257890460365,-763.8899668227785,-3469.9782543817087,-105.45185617360596,-14.561869214127908,-4.71259433879508,77.00000000000001,-686.2966856367196,5374.985723394763,5963.999965093868,59.0752962401733,55.56429633821541,11.819258381975832,1623.863010806811,-686.2966856367196,5374.985723394763,5963.999965093868,59.0752962401733,55.56429633821541,11.819258381975832,1623.863010806811
34,09:30:34.068,11.1803,9.7984,17.2512,23.4211,18.5923,12.1314,18.4759,21.2417,39.1112,-0.1461,0.6926,14.2158,8.7903,23.9097,13.5892,53.6082,2.4937,19.1747,29.0391,14.6156,48.1284,11.071,18.7747,15.5488,34.5403,-3148.0,2862.0,-34.0,322.5,-3587.0,7772.387401315478,-770.108617988398,-3470.3356622354563,-104.5287221110156,-14.29495003501671,-4.797206023667303,76.99999999999999,7772.387401315478,-770.108617988398,-3470.3356622354563,-104.5287221110156,-14.29495003501671,-4.797206023667303,76.99999999999999,-682.4920469905312,5385.683677289402,5963.500730257988,58.74598570018839,55.8152249809613,11.386041681581816,1623.8899403063265,-682.4920469905312,5385.683677289402,5963.500730257988,58.74598570018839,55.8152249809613,11.386041681581816,1623.8899403063265
35,09:30:34.070,14.6278,13.3218,19.9168,26.7435,21.1883,16.0948,20.9128,25.293,42.3896,-0.9097,4.79,18.6006,11.4865,25.1329,16.316,56.4126,6.8539,21.5603,32.2889,17.695,53.7671,13.6569,23.5745,17.3539,38.1517,-3266.5,2867.0,-32.5,383.0,-3574.5,7765.0,-775.0,-3469.0,-104.0,-14.0,-5.0,76.99999999999999,7765.0,-775.0,-3469.0,-104.0,-14.0,-5.0,76.99999999999999,-680.0,5392.999999999999,5963.000000000001,57.99999999999999,55.99999999999999,10.999999999999998,1624.0,-680.0,5392.999999999999,5963.000000000001,57.99999999999999,55.99999999999999,10.999999999999998,1624.0
36,09:30:34.072,16.937,16.1117,21.807,28.9713,22.8038,18.7624,22.4805,27.7122,44.3423,-4.6245,8.1588,21.9819,13.8541,22.2218,18.1104,57.9174,9.794,22.9025,34.2769,19.7516,57.7121,15.7041,27.8643,17.8303,39.665,-3393.0,2722.0,-31.0,549.0,-3559.0,7759.172499737755,-777.4911985605399,-3465.169690515997,-104.05782585590944,-13.698180609540763,-5.31876805213663,76.99999999999999,7759.172499737755,-777.4911985605399,-3465.169690515997,-104.05782585590944,-13.698180609540763,-5.31876805213663,76.99999999999999,-679.7249184547296,5396.275183731897,5963.0811691698345,56.821728323560414,55.99701921349193,10.691855021149903,1624.2070441268577,-679.7249184547296,5396.275183731897,5963.0811691698345,56.821728323560414,55.99701921349193,10.691855021149903,1624.2070441268577
37,09:30:34.074,18.0132,18.1832,22.9484,30.1891,23.5357,20.2815,23.4575,29.3279,45.7017,-9.2088,10.6259,24.2939,16.2305,17.9929,18.9771,58.4633,11.7133,23.3486,35.2916,20.9234,60.3724,16.8283,30.7964,17.6359,39.8153,-3476.0,2678.0,-30.0,770.5,-3542.0,7754.781812699346,-777.7094828240291,-3459.337803872654,-104.62778772717004,-13.417522719544865,-5.675327888616496,77.0,7754.781812699346,-777.7094828240291,-3459.337803872654,-104.62778772717004,-13.417522719544865,-5.675327888616496,77.0,-681.1542106990659,5396.370859669133,5963.6657331896,55.30784583107384,55.83243624514408,10.454431726219802,1624.4679424927403,-681.1542106990659,5396.370859669133,5963.6657331896,55.30784583107384,55.83243624514408,10.454431726219802,1624.4679424927403
38,09:30:34.076,18.7043,19.9847,23.8561,30.9911,24.0962,21.3017,24.6187,30.7859,47.365,-12.8791,12.7312,25.9383,19.5417,14.2986,19.4542,58.8129,13.3723,23.6407,36.0937,21.9153,62.5868,17.5532,32.1791,18.0251,39.3938,-3486.5,2761.5,-28.5,919.5,-3528.5,7751.404875792061,-776.082167807249,-3452.321071971316,-105.56883667047543,-13.187774524778687,-5.972503699027882,77.00000000000001,7751.404875792061,-776.082167807249,-3452.321071971316,-105.56883667047543,-13.187774524778687,-5.972503699027882,77.00000000000001,-683.4210437160361,5394.528943740419,5964.509712624447,53.583099176807885,55.5693436700504,10.271080920714825,1624.7253187951944,-683.4210437160361,5394.528943740419,5964.509712624447,53.583099176807885,55.5693436700504,10.271080920714825,1624.7253187951944
39,09:30:34.078,20.1767,22.0799,25.1704,32.0124,25.2743,22.4766,26.6729,32.2269,49.7427,-14.9183,15.1451,27.4319,24.5313,11.6899,20.2062,59.5868,15.4629,24.546,37.3717,23.4402,65.0445,18.9076,32.7267,19.9031,38.7392,-3422.5,2891.0,-27.0,1047.0,-3519.5,7748.618625923183,-773.0365685269783,-3444.9362267133147,-106.73992374252104,-13.03868422000826,-6.113119672959591,76.99999999999999,7748.618625923183,-773.0365685269783,-3444.9362267133147,-106.73992374252104,-13.03868422000826,-6.113119672959591,76.99999999999999,-685.6585844886719,5391.991351874469,5965.369128039529,51.77223501502711,55.27083406330435,10.125153410139816,1624.921796731766,-685.6585844886719,5391.991351874469,5965.369128039529,51.77223501502711,55.27083406330435,10.125153410139816,1624.921796731766
40,09:30:34.080,22.9454,24.6645,27.1317,33.5223,27.3384,24.1157,29.7608,33.7022,52.606,-15.3126,18.0102,29.0768,30.6566,10.387,21.535,60.9265,18.3698,26.2823,39.327,25.7141,67.9548,21.4244,33.4728,23.2878,37.9996,-3311.0,2939.5,-26.0,1104.0,-3516.5,7746.0,-769.0000000000001,-3438.0000000000005,-108.0,-12.999999999999998,-5.999999999999999,76.99999999999999,7746.0,-769.0000000000001,-3438.0000000000005,-108.0,-12.999999999999998,-5.999999999999999,76.99999999999999,-687.0,5390.000000000001,5966.0,50.0,55.0,10.0,1625.0,-687.0,5390.000000000001,5966.0,50.0,55.0,10.0,1625.0
41,09:30:34.082,26.3686,27.2702,29.3022,35.285,29.8259,26.1378,33.3371,35.5702,55.37,-14.1946,20.7225,30.7819,35.8356,10.9961,23.1526,62.5197,22.0622,28.3663,41.571,28.3242,71.0417,24.5263,34.7962,27.4034,37.5406,-3194.0,2918.0,-25.0,1071.5,-3518.5,7743.241022759202,-764.4485080890759,-3432.2440536435,-109.2264284511824,-13.089439203614452,-5.574151161198032,76.99999999999999,7743.241022759202,-764.4485080890759,-3432.2440536435,-109.2264284511824,-13.089439203614452,-5.574151161198032,76.99999999999999,-686.8270488887066,5389.367172861685,5966.236853648902,48.366465625787214,54.80178043152377,9.886146514612255,1624.9216824916018,-686.8270488887066,5389.367172861685,5966.236853648902,48.366465625787214,54.80178043152377,9.886146514612255,1624.9216824916018
42,09:30:34.084,29.0623,28.9409,30.791,36.6896,31.8392,28.1858,36.4611,38.1996,57.4324,-11.8794,22.2807,32.0716,37.6147,14.1721,24.3596,63.8117,26.0519,29.9441,43.3295,30.4797,73.7162,26.9223,36.0042,31.1333,37.7857,-3110.0,2832.0,-24.0,1042.0,-3518.0,7740.494070255097,-760.0530620409181,-3428.0597690991376,-110.37021991063344,-13.27659574608953,-4.929308803445043,77.0,7740.494070255097,-760.0530620409181,-3428.0597690991376,-110.37021991063344,-13.27659574608953,-4.929308803445043,77.0,-685.5158564160976,5389.186630468044,5966.22823244085,46.87300274563717,54.64849981443425,9.802818853541554,1624.7251188749076,-685.5158564160976,5389.186630468044,5966.22823244085,46.87300274563717,54.64849981443425,9.802818853541554,1624.7251188749076
43,09:30:34.086,29.8921,28.8276,30.8475,37.0502,32.5993,29.747,38.2762,41.2758,58.3283,-9.2141,21.9137,32.2973,34.9256,19.8459,24.4873,64.2268,29.5204,30.3215,43.8399,31.4425,75.3163,27.6168,35.9136,33.508,38.6063,-3086.5,2766.0,-24.0,1014.5,-3517.5,7738.02660637139,-756.5333619482243,-3425.753457733026,-111.4007971444928,-13.519032686757258,-4.197390865093412,77.00000000000001,7738.02660637139,-756.5333619482243,-3425.753457733026,-111.4007971444928,-13.519032686757258,-4.197390865093412,77.00000000000001,-683.6911394991362,5388.122501643561,5966.201184408346,45.49630705259413,54.494328981582896,9.776417935164742,1624.467714012413,-683.6911394991362,5388.122501643561,5966.201184408346,45.49630705259413,54.494328981582896,9.776417935164742,1624.467714012413
44,09:30:34.088,28.7093,26.775,29.3614,35.9462,31.8516,30.2929,38.3833,43.6398,57.7659,-7.4777,19.5424,30.9956,28.9039,26.9551,23.2983,63.3684,31.6803,29.3243,42.7451,30.886,75.3795,26.5541,33.8867,34.0545,39.0768,-3126.0,2732.5,-25.0,954.5,-3511.0,7736.106094991788,-754.6091079036858,-3425.631430911275,-112.2875829189019,-13.774313084950103,-3.510315284494204,76.99999999999999,7736.106094991788,-754.6091079036858,-3425.631430911275,-112.2875829189019,-13.774313084950103,-3.510315284494204,76.99999999999999,-681.9776150547825,5384.838915212718,5966.382757583896,44.21307423970007,54.29343876582092,9.833344677858635,1624.2068727666117,-681.9776150547825,5384.838915212718,5966.382757583896,44.21307423970007,54.29343876582092,9.833344677858635,1624.2068727666117
45,09:30:34.090,26.2667,23.4366,26.8676,33.4457,29.8746,29.5041,36.9023,44.0537,55.6917,-7.6925,15.7969,28.202,22.0598,33.8211,21.0873,61.19,32.1746,27.2926,40.2511,28.9905,73.8642,24.3728,30.3765,32.8812,38.0947,-3204.0,2788.5,-26.5,861.0,-3497.0,7735.0,-755.0,-3427.999999999999,-113.0,-14.0,-3.0,76.99999999999999,7735.0,-755.0,-3427.999999999999,-113.0,-14.0,-3.0,76.99999999999999,-681.0,5378.000000000001,5967.000000000001,43.00000000000001,53.99999999999999,10.0,1624.0000000000002,-681.0,5378.000000000001,5967.000000000001,43.00000000000001,53.99999999999999,10.0,1624.0000000000002
46,09:30:34.092,23.5255,19.8518,24.0872,30.0846,27.1704,27.5023,34.2516,42.213,52.3834,-10.0209,11.6499,24.492,16.6134,38.6807,18.4608,58.0436,31.2037,24.7916,36.9493,26.2505,71.1843,21.694,26.5818,30.4505,35.3868,-3290.0,2803.5,-28.5,792.5,-3483.5,7734.895409225429,-758.122769083153,-3432.950094909996,-113.51646033936218,-14.160062576001518,-2.760627303070786,76.99999999999999,7734.895409225429,-758.122769083153,-3432.950094909996,-113.51646033936218,-14.160062576001518,-2.760627303070786,76.99999999999999,-681.1588859904431,5366.936124821364,5968.299416234555,41.85640917328872,53.5878590604127,10.291558920400984,1623.890225906736,-681.1588859904431,5366.936124821364,5968.299416234555,41.85640917328872,53.5878590604127,10.291558920400984,1623.890225906736
47,09:30:34.094,21.0743,16.8836,21.4704,26.6215,24.1737,24.8932,30.9036,38.9931,48.4602,-13.8461,7.9814,20.7099,13.4725,40.108,16.0175,54.5389,29.3312,22.3197,33.473,23.1899,68.0312,18.7649,23.6557,27.2474,31.8928,-3345.5,2716.5,-31.0,733.5,-3464.0,7735.657906280263,-763.1822690122929,-3439.7111197307886,-113.8513326302986,-14.244094296097323,-2.735436897602213,77.0,7735.657906280263,-763.1822690122929,-3439.7111197307886,-113.8513326302986,-14.244094296097323,-2.735436897602213,77.0,-681.9583636365418,5353.642618458687,5970.605337047003,40.87214318637371,53.109564497118335,10.678292859613968,1623.8635820076297,-681.9583636365418,5353.642618458687,5970.605337047003,40.87214318637371,53.109564497118335,10.678292859613968,1623.8635820076297
48,09:30:34.096,19.1353,14.975,19.1722,23.7463,21.2465,22.5228,27.359,35.7248,44.756,-18.3435,5.3764,17.6009,12.5018,37.4778,14.1875,51.3121,27.2342,20.2414,30.2895,20.2496,65.1294,15.7592,22.1596,23.7041,29.0884,-3354.5,2615.0,-32.5,661.5,-3360.0,7737.072698722381,-769.080384399853,-3447.29709709658,-114.02797475155388,-14.248094728192369,-2.8299328405981754,77.00000000000001,7737.072698722381,-769.080384399853,-3447.29709709658,-114.02797475155388,-14.248094728192369,-2.8299328405981754,77.00000000000001,-682.6783982874184,5340.781049685336,5974.26154974217,40.1596726128147,52.637340403617856,11.119247338626248,1623.891825155156,-682.6783982874184,5340.781049685336,5974.26154974217,40.1596726128147,52.637340403617856,11.119247338626248,1623.891825155156
49,09:30:34.098,17.9249,14.2732,17.3939,21.9025,18.8679,21.0844,24.2806,33.2773,42.0875,-22.8789,4.1661,15.5975,13.3886,31.4548,13.2728,48.8781,25.6192,18.9094,27.7382,17.8907,63.0708,13.2213,22.0138,20.4367,27.8607,-3312.5,2407.5,-33.5,566.5,-3312.5,7738.924994109666,-774.7189998582779,-3454.7220496415835,-114.0697445818728,-14.168063440191585,-2.949619189062789,76.99999999999999,7738.924994109666,-774.7189998582779,-3454.7220496415835,-114.0697445818728,-14.168063440191585,-2.949619189062789,76.99999999999999,-682.5989552921967,5331.012987274652,5979.611841624895,39.83146802617024,52.24341087341139,11.573467878425896,1623.9467122017882,-682.5989552921967,5331.012987274652,5979.611841624895,39.83146802617024,52.24341087341139,11.573467878425896,1623.9467122017882
50,09:30:34.100,17.7588,14.7725,16.5788,21.2189,17.6417,20.8188,22.4449,31.7883,40.9709,-26.9565,4.4581,14.7943,15.9928,24.0166,13.4842,47.5822,25.1735,18.695,26.099,16.6369,62.2063,11.9641,22.7004,18.3283,27.9736,-3237.0,2256.5,-34.0,523.0,-3301.5,7740.999999999998,-778.9999999999999,-3461.0,-113.99999999999996,-14.0,-3.0000000000000004,76.99999999999999,7740.999999999998,-778.9999999999999,-3461.0,-113.99999999999996,-14.0,-3.0000000000000004,76.99999999999999,-681.0000000000001,5327.000000000001,5987.0,40.0,52.0,12.0,1624.0,-681.0000000000001,5327.000000000001,5987.0,40.0,52.0,12.0,1624.0
51,09:30:34.102,18.6683,16.2093,17.0923,21.4537,17.904,21.4411,22.3092,31.0449,41.3578,-30.0781,5.9718,14.9588,19.9365,17.6352,14.7871,47.5054,26.2996,19.7366,25.4411,16.7903,62.4944,12.3654,23.457,18.0136,28.513,-3023.0,2377.0,-33.0,446.5,-3171.0,7743.145340339078,-781.1084155783144,-3465.3395667165173,-113.84373019136936,-13.750310492379556,-2.9113396265185547,76.99999999999999,7743.145340339078,-781.1084155783144,-3465.3395667165173,-113.84373019136936,-13.750310492379556,-2.9113396265185547,76.99999999999999,-677.4334071495202,5330.512327852854,5996.453481412883,40.71989768105678,51.95878332682496,12.36361780378417,1624.029413881456,-677.4334071495202,5330.512327852854,5996.453481412883,40.71989768105678,51.95878332682496,12.36361780378417,1624.029413881456
52,09:30:34.104,19.9898,17.8881,18.646,21.9684,19.2201,22.2685,23.495,30.8527,42.5486,-31.9088,7.8666,15.5175,24.208,14.0387,16.6671,48.2743,28.7121,21.5842,25.3479,17.9839,63.372,13.7574,23.4772,19.0884,28.733,-648.0,2498.5,-31.5,328.5,-3015.5,7745.458304623854,-781.3618619099186,-3467.7277519777176,-113.63244956817285,-13.467027069521228,-2.7129436061457644,77.0,7745.458304623854,-781.3618619099186,-3467.7277519777176,-113.63244956817285,-13.467027069521228,-2.7129436061457644,77.0,-672.5386890377335,5339.75489569719,6006.734419371154,41.81442450886632,52.08924219709152,12.652009708003424,1624.0365530945744,-672.5386890377335,5339.75489569719,6006.734419371154,41.81442450886632,52.08924219709152,12.652009708003424,1624.0365530945744
53,09:30:34.106,20.5634,18.8519,20.15,21.9048,20.3743,22.4826,24.7895,30.9731,43.4686,-32.5926,8.9699,15.6828,27.5267,13.5054,18.1711,49.0135,31.3729,23.1928,24.9314,19.118,63.8904,14.6453,22.23,20.0103,28.4655,1423.0,2498.0,-29.5,309.0,-2926.0,7748.098598739088,-780.3611004523663,-3468.3461538806578,-113.39930384929173,-13.208588400473262,-2.458877772513829,77.00000000000001,7748.098598739088,-780.3611004523663,-3468.3461538806578,-113.39930384929173,-13.208588400473262,-2.458877772513829,77.00000000000001,-667.2272673511895,5352.041299615091,6016.288616622978,43.04900249614683,52.34030940394548,12.858592710330502,1624.0289853669651,-667.2272673511895,5352.041299615091,6016.288616622978,43.04900249614683,52.34030940394548,12.858592710330502,1624.0289853669651
54,09:30:34.108,19.582,18.4698,20.3551,20.643,20.1114,21.4929,24.9052,30.9378,43.2762,-32.7168,8.4987,14.8747,29.2219,15.1751,18.4176,48.7314,33.0824,23.4969,23.3706,19.0123,63.2307,13.7428,19.7951,19.1928,27.9005,2999.0,2531.0,-28.0,414.5,-2777.0,7751.225928569549,-778.7068926632087,-3467.3763705223982,-113.17743875360696,-13.03343315428344,-2.203207959254483,76.99999999999999,7751.225928569549,-778.7068926632087,-3467.3763705223982,-113.17743875360696,-13.03343315428344,-2.203207959254483,76.99999999999999,-662.410563776428,5364.685135688666,6023.561875916538,44.18905365561874,52.66091774053309,12.97678380843846,1624.0142784262373,-662.410563776428,5364.685135688666,6023.561875916538,44.18905365561874,52.66091774053309,12.97678380843846,1624.0142784262373
55,09:30:34.110,17.369,16.9769,18.8358,18.2994,18.1363,19.3191,23.4777,30.2623,41.921,-32.7844,6.7662,13.2465,29.6626,17.8942,17.2838,47.0384,33.3842,22.2189,20.6378,17.3713,61.3105,11.0142,16.9427,16.4743,27.2701,2922.5,2641.5,-27.0,497.0,-2574.0,7755.000000000001,-777.0,-3465.0,-113.0,-13.0,-2.0000000000000004,76.99999999999999,7755.000000000001,-777.0,-3465.0,-113.0,-13.0,-2.0000000000000004,76.99999999999999,-658.9999999999999,5375.0,6026.999999999999,44.99999999999999,53.0,13.0,1624.0,-658.9999999999999,5375.0,6026.999999999999,44.99999999999999,53.0,13.0,1624.0
56,09:30:34.112,15.3104,15.4152,16.4305,15.8226,15.4893,16.7565,21.4232,29.0028,40.1876,-32.6929,5.1622,11.8251,29.7364,20.7489,15.6655,44.6214,32.984,20.2113,17.7304,15.191,58.9685,7.8355,14.8313,13.4821,26.9044,3034.5,2790.0,-26.5,498.0,-2347.0,7759.435229418258,-775.7395686035907,-3461.523638223936,-112.88461889516007,-13.14269545448009,-1.8900141908548156,76.99999999999999,7759.435229418258,-775.7395686035907,-3461.523638223936,-112.88461889516007,-13.14269545448009,-1.8900141908548156,76.99999999999999,-657.5954854114717,5380.934563767223,6025.526658113919,45.30400010248477,53.31300763228748,12.933969864462696,1623.992118567442,-657.5954854114717,5380.934563767223,6025.526658113919,45.30400010248477,53.31300763228748,12.933969864462696,1623.992118567442
57,09:30:34.114,14.9141,14.9488,14.6829,14.4888,13.8735,15.0745,20.2861,27.9874,39.1483,-31.8157,5.2536,11.9615,29.9704,23.0134,14.9665,42.9239,33.2252,18.9393,16.0619,14.1198,57.4802,6.1056,14.4963,12.3562,27.4402,3400.5,2730.0,-25.0,408.0,-2285.5,7763.964875224328,-775.0182833480342,-3457.753872358347,-112.7868690970096,-13.399797425817404,-1.8607886778143257,77.0,7763.964875224328,-775.0182833480342,-3457.753872358347,-112.7868690970096,-13.399797425817404,-1.8607886778143257,77.0,-657.5508802125146,5382.9777987525695,6019.976985468396,45.150158778162655,53.58146671451583,12.833668308372934,1623.9902056140731,-657.5508802125146,5382.9777987525695,6019.976985468396,45.150158778162655,53.58146671451583,12.833668308372934,1623.9902056140731
58,09:30:34.116,16.7738,16.1098,14.7361,15.1012,14.4413,15.2841,21.1135,28.2513,39.4792,-29.6744,7.6857,14.3914,30.2796,23.9553,16.1328,43.1393,35.0232,19.4558,16.427,15.2438,57.7249,6.9944,16.4128,13.9849,29.5879,3842.5,2743.5,-23.0,230.5,-2212.5,7767.876906321269,-774.8272137906824,-3454.6222873807915,-112.64680985127912,-13.685551669914515,-1.8865560693464083,77.00000000000001,7767.876906321269,-774.8272137906824,-3454.6222873807915,-112.64680985127912,-13.685551669914515,-1.8865560693464083,77.00000000000001,-657.908532307821,5382.253751854305,6011.663983765917,44.64431740259841,53.793421980600336,12.766381820051874,1623.9922333769837,-657.908532307821,5382.253751854305,6011.663983765917,44.64431740259841,53.793421980600336,12.766381820051874,1623.9922333769837
59,09:30:34.118,20.258,18.5566,16.5949,17.4863,17.0294,17.4278,23.782,30.0717,41.1796,-26.5571,11.7941,18.6356,30.5242,22.9646,18.9829,45.2993,38.1617,21.6826,18.3797,18.316,59.6287,10.2561,20.2921,17.435,33.3831,4198.5,2822.5,-20.5,-41.0,-2132.0,7770.45929161214,-775.1574294888869,-3453.060468268824,-112.40450040369896,-13.914203942674522,-1.941548973919009,76.99999999999999,7770.45929161214,-775.1574294888869,-3453.060468268824,-112.40450040369896,-13.914203942674522,-1.941548973919009,76.99999999999999,-657.7107896020846,5379.886469970692,6001.900654708953,43.89231735135581,53.93691816445664,12.799396887820553,1623.9961740932624,-657.7107896020846,5379.886469970692,6001.900654708953,43.89231735135581,53.93691816445664,12.799396887820553,1623.9961740932624
60,09:30:34.120,24.0401,21.3988,19.2702,20.6315,20.3891,20.454,27.2132,32.538,43.7687,-23.4832,16.1676,23.2385,31.0292,19.9288,22.3472,48.2224,41.4849,24.5313,20.5183,22.0164,62.2614,14.5117,25.1353,20.9852,37.6642,4334.0,2847.5,-18.0,-329.0,-2044.0,7770.999999999999,-775.9999999999999,-3454.0000000000005,-112.0,-14.0,-2.0,76.99999999999999,7770.999999999999,-775.9999999999999,-3454.0000000000005,-112.0,-14.0,-2.0,76.99999999999999,-656.0,5377.0,5992.0,43.00000000000001,54.00000000000001,13.0,1624.0,-656.0,5377.0,5992.0,43.00000000000001,54.00000000000001,13.0,1624.0
61,09:30:34.122,26.8772,23.6735,21.5036,23.2675,23.0587,22.8176,30.0935,34.1182,46.5339,-21.5922,19.531,26.622,32.2397,15.4254,24.8271,50.3249,43.6828,26.6514,21.3807,24.8681,64.4155,18.1254,29.5324,23.5081,40.5249,4207.5,2882.5,-16.0,-608.0,-2058.5,7769.057741987895,-777.277310007322,-3457.973880387739,-111.39379422798991,-13.886907689700172,-2.040603610062096,76.99999999999999,7769.057741987895,-777.277310007322,-3457.973880387739,-111.39379422798991,-13.886907689700172,-2.040603610062096,76.99999999999999,-652.1366512045895,5374.517417078252,5983.05588613143,42.064101909004165,53.97318614402539,13.404502738365142,1624.0021118487764,-652.1366512045895,5374.517417078252,5983.05588613143,42.064101909004165,53.97318614402539,13.404502738365142,1624.0021118487764
62,09:30:34.124,28.0005,24.5894,22.3628,24.3812,24.0558,23.3191,31.4094,33.6768,48.4755,-21.5879,21.142,27.817,33.7956,10.4983,25.4884,50.5261,43.9155,27.1083,20.1761,25.934,65.156,19.9392,32.1289,24.7791,40.4998,3876.0,2908.5,-13.0,-896.5,-1708.5,7765.274194478837,-778.6370046979439,-3463.920758588895,-110.62807404378805,-13.637783227209423,-2.0599016825968346,77.0,7765.274194478837,-778.6370046979439,-3463.920758588895,-110.62807404378805,-13.637783227209423,-2.0599016825968346,77.0,-646.7537901122032,5372.557909292535,5975.285638755246,41.14494037848257,53.85689094484563,13.925317058505026,1624.002624449133,-646.7537901122032,5372.557909292535,5975.285638755246,41.14494037848257,53.85689094484563,13.925317058505026,1624.002624449133
63,09:30:34.126,27.008,23.5371,21.3201,23.3378,22.9296,21.4991,30.5197,30.9647,48.1662,-23.7217,20.5609,26.5429,34.1725,6.165,23.9776,48.4948,41.846,25.5087,16.8385,24.8218,63.9737,19.4272,32.0369,24.7119,37.3569,3474.5,2919.5,-10.5,-1186.5,-1544.5,7760.561775975834,-779.6580443849042,-3470.3806965961776,-109.7654567455916,-13.345204919868747,-2.058897950100526,77.00000000000001,7760.561775975834,-779.6580443849042,-3470.3806965961776,-109.7654567455916,-13.345204919868747,-2.058897950100526,77.00000000000001,-640.8026034175251,5371.039692967691,5968.687448313351,40.29372789345928,53.65400267365328,14.443880009462063,1624.0020811251015,-640.8026034175251,5371.039692967691,5968.687448313351,40.29372789345928,53.65400267365328,14.443880009462063,1624.0020811251015
64,09:30:34.128,23.6414,20.1119,18.0426,19.7461,19.4456,17.387,27.0545,26.24,44.0841,-28.1402,17.3563,22.7975,31.5586,2.9322,20.1911,44.2372,37.3352,21.7179,11.5804,21.3206,60.608,16.4349,28.9433,22.7759,31.7373,3154.5,2911.5,-9.0,-1566.5,-1314.5,7755.832904981888,-779.9193893812433,-3475.893756402309,-108.86855963159633,-13.101751075018608,-2.038596145069472,76.99999999999999,7755.832904981888,-779.9193893812433,-3475.893756402309,-108.86855963159633,-13.101751075018608,-2.038596145069472,76.99999999999999,-635.2342778152287,5369.880984428564,5963.259505247633,39.56167693895696,53.367409601640496,14.841628640279591,1624.001025200713,-635.2342778152287,5369.880984428564,5963.259505247633,39.56167693895696,53.367409601640496,14.841628640279591,1624.001025200713
65,09:30:34.130,17.8313,14.2926,12.3744,13.4551,13.4913,11.1035,21.0253,19.6716,35.586,-34.9814,11.2945,16.5976,25.292,0.5487,14.0707,37.7313,30.361,15.7012,4.5756,15.3128,54.915,11.0022,22.9569,18.4737,24.2144,3028.5,2884.5,-8.5,-1918.0,-962.0,7752.0,-779.0,-3479.0,-108.0,-12.999999999999998,-2.0,76.99999999999999,7752.0,-779.0,-3479.0,-108.0,-12.999999999999998,-2.0,76.99999999999999,-631.0000000000002,5369.0,5959.0,39.0,52.99999999999999,14.999999999999998,1624.0,-631.0000000000002,5369.0,5959.0,39.0,52.99999999999999,14.999999999999998,1624.0
66,09:30:34.132,10.0185,6.6785,4.6809,4.8702,5.4307,2.9542,13.1358,11.3993,23.8763,-43.8787,2.8963,8.2727,16.5011,-1.7856,5.9031,29.1931,21.3854,7.7956,-3.8217,7.1731,47.0735,3.5557,14.5637,12.3029,15.0676,3131.0,2850.5,-9.0,-2117.5,-760.0,7749.773802630162,-776.6231913671213,-3478.668840225112,-107.2122041928793,-13.109673786719132,-1.9475713688967988,76.99999999999999,7749.773802630162,-776.6231913671213,-3478.668840225112,-107.2122041928793,-13.109673786719132,-1.9475713688967988,76.99999999999999,-628.8019097701655,5368.3397679197615,5955.937797360348,38.64759226149764,52.56224779161089,14.832019182077069,1623.999434037452,-628.8019097701655,5368.3397679197615,5955.937797360348,38.64759226149764,52.56224779161089,14.832019182077069,1623.999434037452
67,09:30:34.134,1.4305,-1.4173,-3.7776,-4.6698,-3.4691,-5.9876,4.9154,2.2972,12.0108,-53.2692,-6.2678,-0.9722,7.3777,-4.6395,-3.143,19.7444,11.7972,-0.8453,-12.5556,-1.7797,38.0104,-4.7502,4.9327,5.9323,5.1842,3411.5,2819.0,-9.0,-2137.5,-516.0,7749.058346860314,-773.0896978601902,-3475.587093286084,-106.51683472783633,-13.409069665344678,-1.8996045917983355,77.0,7749.058346860314,-773.0896978601902,-3475.587093286084,-106.51683472783633,-13.409069665344678,-1.8996045917983355,77.0,-628.3459593386626,5367.942564077287,5954.2244595106,38.49407970790524,52.09496950610128,14.377063457607637,1623.9992965893948,-628.3459593386626,5367.942564077287,5954.2244595106,38.49407970790524,52.09496950610128,14.377063457607637,1623.9992965893948
68,09:30:34.136,-6.0209,-8.1486,-10.9375,-12.9423,-11.1146,-13.5577,-1.6355,-5.4919,3.6069,-60.3413,-13.9823,-8.9352,-0.123,-7.3571,-10.9198,11.6281,3.8261,-8.2132,-19.7093,-9.3871,29.5618,-12.0376,-3.7755,1.2191,-3.0637,3747.0,2798.5,-10.0,-2216.5,-304.5,7749.555989775386,-768.8446086697004,-3470.870926234501,-105.915363166354,-13.85362865061044,-1.8778521302514888,77.00000000000001,7749.555989775386,-768.8446086697004,-3470.870926234501,-105.915363166354,-13.85362865061044,-1.8778521302514888,77.00000000000001,-629.0890540220765,5367.875476274931,5954.042222980679,38.51677102356401,51.646567324786446,13.706098142099997,1623.9994421226113,-629.0890540220765,5367.875476274931,5954.042222980679,38.51677102356401,51.646567324786446,13.706098142099997,1623.9994421226113
69,09:30:34.138,-10.3101,-11.6244,-14.6627,-17.5726,-15.3492,-17.1597,-4.7941,-9.1773,1.0167,-62.0687,-18.2825,-13.152,-4.9487,-7.7663,-15.0447,7.4027,-0.2933,-12.1204,-23.1397,-13.4636,23.9389,-16.3092,-8.8029,-0.9581,-6.4478,4008.0,2776.5,-12.0,-2288.0,-226.0,7750.969088460307,-764.3330129861383,-3465.6365061219435,-105.40926106991418,-14.398791757251033,-1.9040664458031025,76.99999999999999,7750.969088460307,-764.3330129861383,-3465.6365061219435,-105.40926106991418,-14.398791757251033,-1.9040664458031025,76.99999999999999,-630.4880991369942,5368.20559231505,5955.573324300505,38.69297489281523,51.26544342898088,12.890088551061217,1623.9997251038849,-630.4880991369942,5368.20559231505,5955.573324300505,38.69297489281523,51.26544342898088,12.890088551061217,1623.9997251038849
70,09:30:34.140,-10.112,-10.6116,-13.7526,-17.136,-14.976,-15.2047,-3.8335,-6.9327,4.2301,-56.8343,-18.2374,-12.1298,-6.6928,-3.3225,-14.1296,8.5239,0.5376,-11.2734,-21.6199,-12.8439,22.6211,-16.3599,-8.0878,-0.9034,-2.9736,4098.5,2745.0,-13.5,-2215.0,-112.5,7753.000000000001,-760.0,-3461.0,-105.0,-15.0,-2.0,76.99999999999999,7753.000000000001,-760.0,-3461.0,-105.0,-15.0,-2.0,76.99999999999999,-632.0,5369.0,5959.000000000001,39.0,50.99999999999999,11.999999999999998,1624.0,-632.0,5369.0,5959.000000000001,39.0,50.99999999999999,11.999999999999998,1624.0
71,09:30:34.142,-5.4386,-5.1729,-8.579,-11.9226,-10.3484,-8.2188,0.7074,0.757,11.2291,-45.4856,-14.1826,-6.1985,-5.1938,6.7981,-8.6091,14.4145,5.6383,-6.0086,-15.6467,-7.9579,25.4129,-12.3709,-1.6279,0.6632,6.4035,3991.5,2814.0,-15.0,-2152.0,80.5,7755.39104749146,-756.2379245241892,-3457.89475871181,-104.68538900049198,-15.610397163423563,-2.1771109143507124,76.99999999999999,7755.39104749146,-756.2379245241892,-3457.89475871181,-104.68538900049198,-15.610397163423563,-2.1771109143507124,76.99999999999999,-633.263709714747,5370.187511242701,5964.240924427174,39.417529045004926,50.88182268953059,11.099420533326184,1624.000152001414,-633.263709714747,5370.187511242701,5964.240924427174,39.417529045004926,50.88182268953059,11.099420533326184,1624.000152001414
72,09:30:34.144,2.2975,3.1902,-0.8974,-3.7887,-3.1207,1.3886,7.3282,11.2205,19.3941,-30.9804,-7.4206,2.6793,-0.7318,20.3563,-0.5039,22.8068,12.9145,1.8689,-7.2395,-0.5516,30.4695,-5.7523,8.3192,3.3266,18.2146,3738.5,2821.0,-16.0,-2285.5,219.0,7758.044418079907,-753.2282038612874,-3456.5228682667653,-104.44858704486496,-16.173938111412653,-2.405679950209867,77.0,7758.044418079907,-753.2282038612874,-3456.5228682667653,-104.44858704486496,-16.173938111412653,-2.405679950209867,77.0,-634.6463725331455,5371.143834398318,5970.16052320235,39.934740789896175,50.87523103074832,10.22242911106323,1624.000189193287,-634.6463725331455,5371.143834398318,5970.16052320235,39.934740789896175,50.87523103074832,10.22242911106323,1624.000189193287
73,09:30:34.146,10.9011,12.1484,7.0733,4.8483,4.6554,10.7847,14.2519,21.1784,26.8457,-16.8525,0.3388,12.0055,5.4545,32.9252,7.7264,31.0931,20.0001,10.0573,1.1716,7.2397,35.3997,1.6369,18.5594,6.8997,28.8197,3437.5,2823.5,-16.5,-2503.0,556.0,7760.902264922623,-751.0995209362922,-3456.903598465816,-104.26909058899204,-16.632280477689733,-2.645693528893544,77.00000000000001,7760.902264922623,-751.0995209362922,-3456.903598465816,-104.26909058899204,-16.632280477689733,-2.645693528893544,77.00000000000001,-636.6971804941694,5371.106401932587,5975.359659763938,40.54318801228467,50.92772802720073,9.395727422137565,1624.000150384453,-636.6971804941694,5371.106401932587,5975.359659763938,40.54318801228467,50.92772802720073,9.395727422137565,1624.000150384453
74,09:30:34.148,18.3784,19.6518,13.7077,12.1956,11.4792,18.227,20.1155,28.5204,32.8508,-5.6273,7.5539,19.9533,11.2505,40.5929,14.4063,37.6341,25.3805,16.8772,7.9672,13.8544,38.6412,8.3328,26.7902,10.8988,36.5404,3205.5,2820.5,-17.5,-2791.5,748.5,7763.906741176894,-749.9805586741971,-3459.056219109911,-104.126396088746,-16.92708189597804,-2.8571380717182477,76.99999999999999,7763.906741176894,-749.9805586741971,-3459.056219109911,-104.126396088746,-16.92708189597804,-2.8571380717182477,76.99999999999999,-639.9653256367969,5369.312646311236,5978.439197550352,41.23442348978244,50.98681668243543,8.64601715547422,1624.000074383746,-639.9653256367969,5369.312646311236,5978.439197550352,41.23442348978244,50.98681668243543,8.64601715547422,1624.000074383746
75,09:30:34.150,23.7073,24.811,18.5096,17.6759,16.828,23.4996,24.3321,32.9464,37.3038,1.781,13.2965,25.8943,14.695,42.3335,19.137,42.146,28.768,21.8223,12.8597,18.74,40.0509,13.6589,32.4546,14.4449,41.7821,3119.0,2810.0,-18.5,-3123.0,1230.5,7767.000000000002,-750.0,-3463.0,-104.0,-17.0,-3.000000000000001,76.99999999999999,7767.000000000002,-750.0,-3463.0,-104.0,-17.0,-3.000000000000001,76.99999999999999,-645.0,5365.000000000001,5978.000000000001,42.0,51.0,8.0,1624.0,-645.0,5365.000000000001,5978.000000000001,42.0,51.0,8.0,1624.0
76,09:30:34.152,26.9545,27.9445,21.8853,21.6619,20.9277,27.1995,27.002,35.228,40.0162,5.6151,17.4242,30.0715,15.176,40.094,22.412,45.1633,30.6454,25.3119,16.5498,22.1216,40.3632,17.5767,36.1258,16.8393,45.4511,3202.5,2797.0,-18.5,-3320.5,1845.0,7770.078007404008,-751.2171105361182,-3468.5681249276467,-103.8862398051524,-16.816737559587125,-3.0479849737005296,76.99999999999999,7770.078007404008,-751.2171105361182,-3468.5681249276467,-103.8862398051524,-16.816737559587125,-3.0479849737005296,76.99999999999999,-652.0392513708487,5357.830187109436,5973.170504930963,42.842291558483225,50.92646145026652,7.482298684617197,1623.9999579568905,-652.0392513708487,5357.830187109436,5973.170504930963,42.842291558483225,50.92646145026652,7.482298684617197,1623.9999579568905
77,09:30:34.154,28.7846,29.8674,24.4731,24.7516,24.1925,29.766,28.525,36.0252,40.5413,6.5436,20.3727,32.8975,13.6946,36.7547,24.8662,47.2543,31.5241,28.0005,19.9981,24.4307,40.1824,20.2994,38.3092,18.1457,47.5546,3408.0,2780.5,-19.0,-3412.5,2367.5,7772.851980820074,-753.4134866946544,-3474.8494336468552,-103.84881709270326,-16.43917788900562,-3.029675607362601,77.0,7772.851980820074,-753.4134866946544,-3474.8494336468552,-103.84881709270326,-16.43917788900562,-3.029675607362601,77.0,-660.0765505287625,5349.162098329436,5965.189447680007,43.80695713251152,50.772106370905135,7.109220098137489,1623.9999466374563,-660.0765505287625,5349.162098329436,5965.189447680007,43.80695713251152,50.772106370905135,7.109220098137489,1623.9999466374563
78,09:30:34.156,29.8145,31.1131,26.5952,27.2242,26.7947,31.131,29.225,35.3699,38.6302,5.3835,22.6652,34.5006,11.9878,34.0173,26.7785,48.6203,31.5524,30.2158,23.8822,25.883,39.4791,22.0255,38.904,19.0626,47.3277,3648.0,2767.0,-20.0,-3544.0,2679.0,7774.986950534136,-756.3013075851302,-3480.746679902237,-103.96827447767788,-15.9532494386308,-2.98737375417444,77.00000000000001,7774.986950534136,-756.3013075851302,-3480.746679902237,-103.96827447767788,-15.9532494386308,-2.98737375417444,77.00000000000001,-667.7942240012482,5340.7789159947215,5955.823137963575,44.95047692729771,50.55452056641057,6.894992169349282,1623.9999563395768,-667.7942240012482,5340.7789159947215,5955.823137963575,44.95047692729771,50.55452056641057,6.894992169349282,1623.9999563395768
79,09:30:34.158,30.2784,31.7142,28.1624,29.0015,28.6073,31.0508,29.2159,33.0767,34.7833,3.2334,24.4695,34.7672,11.3836,32.0167,28.052,49.163,30.6573,31.8439,28.4135,26.4578,37.9006,22.9021,37.6367,20.1907,44.4019,3829.5,2756.5,-20.0,-3727.0,3001.5,7776.147946832131,-759.592752317072,-3485.1626174384146,-104.3251545751018,-15.444880658837093,-2.96338126732418,76.99999999999999,7776.147946832131,-759.592752317072,-3485.1626174384146,-104.3251545751018,-15.444880658837093,-2.96338126732418,76.99999999999999,-673.8745983158254,5334.463822440001,5946.837885498089,46.329331148056575,50.29128984127722,6.853842827040664,1623.9999773611312,-673.8745983158254,5334.463822440001,5946.837885498089,46.329331148056575,50.29128984127722,6.853842827040664,1623.9999773611312
80,09:30:34.160,30.111,31.5297,28.9259,29.939,29.4181,29.5391,28.5109,29.4073,30.2726,1.4137,25.531,33.6517,12.3393,30.4409,28.4662,48.7197,28.8944,32.5729,33.3439,26.138,35.3358,23.0815,34.7137,21.4728,39.5387,3883.5,2746.5,-20.0,-3810.0,3264.5,7776.0,-763.0,-3487.0,-105.0,-15.000000000000002,-3.0,76.99999999999999,7776.0,-763.0,-3487.0,-105.0,-15.000000000000002,-3.0,76.99999999999999,-677.0,5332.0,5940.0,48.000000000000014,50.0,6.999999999999998,1623.9999999999998,-677.0,5332.0,5940.0,48.000000000000014,50.0,6.999999999999998,1623.9999999999998
81,09:30:34.162,29.2161,30.5955,28.7504,30.0724,29.1593,26.9422,27.196,25.2027,26.5287,0.8998,25.5008,31.3817,14.7313,29.439,27.9046,47.228,26.6001,32.205,38.0377,25.0909,32.0523,22.7249,30.89,22.3517,34.2116,3799.0,2742.5,-19.5,-3840.0,3502.5,7774.336922892516,-766.237633331339,-3485.544741577607,-106.03365177889856,-14.68265259822773,-3.126949190847262,76.99999999999999,7774.336922892516,-766.237633331339,-3485.544741577607,-106.03365177889856,-14.68265259822773,-3.126949190847262,76.99999999999999,-676.2912848018647,5334.603740319545,5936.709055848968,49.96530472106357,49.68433150940308,7.331384728204503,1624.000016171023,-676.2912848018647,5334.603740319545,5936.709055848968,49.96530472106357,49.68433150940308,7.331384728204503,1624.000016171023
82,09:30:34.164,27.656,29.1229,27.7222,29.6448,27.9989,23.7541,25.5198,21.3859,24.3924,1.7017,24.3533,28.4175,18.2377,29.2113,26.4605,44.8197,24.262,30.8314,41.6972,23.6365,28.3722,21.9691,26.9879,22.4064,29.6782,3612.5,2739.5,-20.0,-3920.0,3667.5,7771.467658639806,-769.0298493600991,-3481.6153971458234,-107.30814458432263,-14.469350332564204,-3.323617620339872,77.0,7771.467658639806,-769.0298493600991,-3481.6153971458234,-107.30814458432263,-14.469350332564204,-3.323617620339872,77.0,-672.6234253518177,5341.2237722839245,5936.897686077607,52.0134306800608,49.29234348563061,7.780690496386104,1624.0000242568872,-672.6234253518177,5341.2237722839245,5936.897686077607,52.0134306800608,49.29234348563061,7.780690496386104,1624.0000242568872
83,09:30:34.166,25.7018,27.3012,26.148,29.0196,26.3216,20.5154,23.8852,18.4205,23.8671,2.9357,22.5573,25.3064,22.3696,29.0431,24.4767,41.9022,22.3331,28.8559,43.8064,22.126,24.4422,20.9718,23.5345,21.809,26.539,3400.0,2740.0,-21.5,-4023.5,3634.0,7767.829932940842,-771.1032487231885,-3476.4136819252394,-108.66581150029674,-14.31472176778687,-3.556811454408734,77.00000000000001,7767.829932940842,-771.1032487231885,-3476.4136819252394,-108.66581150029674,-14.31472176778687,-3.556811454408734,77.00000000000001,-667.3099235008411,5350.241934088525,5940.131788381762,53.878904278525326,48.75818970715683,8.264303900465206,1624.0000242572396,-667.3099235008411,5350.241934088525,5940.131788381762,53.878904278525326,48.75818970715683,8.264303900465206,1624.0000242572396
84,09:30:34.168,23.8237,25.2929,24.5446,28.625,24.6709,17.8673,22.8003,16.2957,24.5238,3.7206,20.9063,22.6086,26.402,27.4016,22.5426,39.1442,21.1925,26.9104,44.5521,20.9134,20.4606,20.0418,20.9046,21.2456,24.9607,3242.0,2742.5,-23.0,-4198.0,3557.0,7763.861471494583,-772.1844320575193,-3471.1413111364345,-109.9489856108478,-14.173395468672936,-3.793336858985172,76.99999999999999,7763.861471494583,-772.1844320575193,-3471.1413111364345,-109.9489856108478,-14.173395468672936,-3.793336858985172,76.99999999999999,-661.6642810999073,5360.0400639287545,5945.977260457279,55.29625191799396,48.01602395245503,8.698611536363076,1624.0000161717276,-661.6642810999073,5360.0400639287545,5945.977260457279,55.29625191799396,48.01602395245503,8.698611536363076,1624.0000161717276
85,09:30:34.170,22.6223,23.4573,23.5573,28.8919,23.6309,16.491,22.7698,14.9719,26.0745,4.123,20.1511,20.8676,29.6271,23.4682,21.3537,37.241,21.1853,25.6609,44.7985,20.3912,17.0188,19.6677,19.6111,21.4665,24.9624,3188.0,2743.0,-24.0,-4220.5,3447.5,7760.0,-771.9999999999999,-3466.9999999999995,-111.0,-13.999999999999998,-4.0,76.99999999999999,7760.0,-771.9999999999999,-3466.9999999999995,-111.0,-13.999999999999998,-4.0,76.99999999999999,-656.9999999999999,5369.0,5954.0,56.0,47.00000000000001,9.0,1623.9999999999995,-656.9999999999999,5369.0,5954.0,56.0,47.00000000000001,9.0,1623.9999999999995
86,09:30:34.172,22.5821,22.3806,23.6557,30.0386,23.5645,16.7369,24.052,14.6866,28.4776,5.1755,20.6076,20.4421,31.7873,18.5525,21.3639,36.5045,22.5145,25.4846,45.4618,20.873,14.9205,20.2411,20.1425,22.8126,26.3203,3249.5,2740.5,-24.0,-4180.5,3352.0,7756.630301025927,-770.4563561385279,-3464.9009087619247,-111.7071530792544,-13.76465204750159,-4.148218262910599,76.99999999999999,7756.630301025927,-770.4563561385279,-3464.9009087619247,-111.7071530792544,-13.76465204750159,-4.148218262910599,76.99999999999999,-654.3076094216915,5375.778851612384,5963.601271673167,55.80848955726445,45.6882125121205,9.112162402565056,1623.999977359016,-654.3076094216915,5375.778851612384,5963.601271673167,55.80848955726445,45.6882125121205,9.112162402565056,1623.999977359016
87,09:30:34.174,23.6288,22.384,24.6592,31.7082,24.2482,18.1535,26.3077,15.6558,31.4361,7.7994,21.8509,21.1402,33.0904,15.5163,22.3543,36.5238,24.9092,26.1119,46.6658,22.2252,14.3759,21.5466,22.2944,24.8995,28.3178,3390.5,2735.0,-22.5,-4241.5,3301.5,7753.925384620695,-768.1791158649535,-3464.5929777698457,-112.14260457000874,-13.49942078073692,-4.227853911278316,77.0,7753.925384620695,-768.1791158649535,-3464.5929777698457,-112.14260457000874,-13.49942078073692,-4.227853911278316,77.0,-653.2857480639615,5380.13481253488,5973.523808009567,54.87532014724883,44.234519686570856,9.088017916318805,1623.9999563349938,-653.2857480639615,5380.13481253488,5973.523808009567,54.87532014724883,44.234519686570856,9.088017916318805,1623.9999563349938
88,09:30:34.176,24.7698,22.8264,25.4507,32.7452,24.6638,19.3679,28.3883,17.3792,33.841,11.5472,22.6451,21.9175,33.6076,16.2483,23.2226,36.148,27.3222,26.4772,47.3467,23.5154,14.2862,22.4438,24.648,26.5524,29.7844,3548.5,2722.0,-21.0,-4349.5,3308.0,7752.005317702496,-765.9736975221164,-3465.534592396803,-112.42447952113577,-13.25186349022158,-4.233380428190727,77.00000000000001,7752.005317702496,-765.9736975221164,-3465.534592396803,-112.42447952113577,-13.25186349022158,-4.233380428190727,77.00000000000001,-653.3100819953854,5382.101347651183,5982.345708509381,53.43790595860171,42.83672060496167,9.007792228790086,1623.999946631464,-653.3100819953854,5382.101347651183,5982.345708509381,53.43790595860171,42.83672060496167,9.007792228790086,1623.999946631464
89,09:30:34.178,24.2814,22.006,24.2943,31.4769,23.2755,18.5716,28.5987,18.3047,33.887,14.3737,21.3184,21.068,32.7115,19.4523,22.2916,33.8706,28.0666,25.0317,45.7131,23.147,12.4792,21.2091,24.9112,26.155,29.4767,3663.5,2707.5,-19.0,-4373.5,3365.5,7750.990167189532,-764.645519452852,-3467.1841380158407,-112.67090298150868,-13.069537466470734,-4.159271296735405,76.99999999999999,7750.990167189532,-764.645519452852,-3467.1841380158407,-112.67090298150868,-13.069537466470734,-4.159271296735405,76.99999999999999,-653.7562772845396,5381.71192184499,5988.645072672799,51.733661179969005,41.69261434890108,8.951711027507562,1623.9999579519556,-653.7562772845396,5381.71192184499,5988.645072672799,51.733661179969005,41.69261434890108,8.951711027507562,1623.9999579519556
90,09:30:34.180,20.6248,18.127,19.7928,26.5763,18.855,14.435,25.5213,16.4544,30.0365,13.8409,16.6396,17.0819,29.3956,21.1086,18.1612,28.5255,25.579,20.5417,40.3767,19.6783,6.9975,16.5619,21.1561,22.4953,26.5219,3689.5,2689.5,-17.5,-4335.5,3447.5,7751.000000000001,-764.9999999999999,-3469.0000000000005,-112.99999999999996,-13.0,-4.0,76.99999999999999,7751.000000000001,-764.9999999999999,-3469.0000000000005,-112.99999999999996,-13.0,-4.0,76.99999999999999,-654.0,5379.0,5991.0,50.0,40.99999999999999,9.000000000000002,1624.0,-654.0,5379.0,5991.0,50.0,40.99999999999999,9.000000000000002,1624.0
91,09:30:34.182,13.6444,10.801,11.9584,18.0857,11.451,6.9745,19.0151,10.8028,22.2017,8.9322,8.8017,9.7671,23.4134,17.5987,10.7232,20.0658,19.49,13.0113,31.4777,12.9163,-2.4204,8.7533,13.1939,15.7507,20.7834,3626.0,2676.5,-16.5,-4160.0,3518.5,7752.045873003772,-767.5289421145485,-3470.595623374692,-113.4977359040846,-13.066739211765633,-3.7601777575104216,76.99999999999999,7752.045873003772,-767.5289421145485,-3470.595623374692,-113.4977359040846,-13.066739211765633,-3.7601777575104216,76.99999999999999,-653.6062775113667,5374.064853230924,5988.549857458374,48.42473704987819,40.89081844211358,9.203965661535452,1624.000074392911,-653.6062775113667,5374.064853230924,5988.549857458374,48.42473704987819,40.89081844211358,9.203965661535452,1624.000074392911
92,09:30:34.184,5.1353,1.8459,2.6136,7.8736,2.7933,-2.1336,10.6789,2.4064,12.1919,1.064,-0.2304,0.8143,16.1101,8.8773,1.6644,10.0285,11.2647,4.1074,21.0617,4.4666,-13.8018,-0.1624,3.086,7.8315,13.1962,3498.0,2666.5,-16.0,-3853.5,3550.5,7753.702802877415,-771.4696871800854,-3472.204691774793,-114.12143713564386,-13.19696654448761,-3.4849667345469224,77.0,7753.702802877415,-771.4696871800854,-3472.204691774793,-114.12143713564386,-13.19696654448761,-3.4849667345469224,77.0,-652.8975823923331,5367.268977576564,5982.679081884139,46.9972887309419,41.23357776808329,9.499237838338924,1624.000150403136,-652.8975823923331,5367.268977576564,5982.679081884139,46.9972887309419,41.23357776808329,9.499237838338924,1624.000150403136
93,09:30:34.186,-1.878,-5.4942,-5.3295,-0.9917,-4.3578,-10.0924,3.2532,-5.771,2.9444,-6.5753,-7.5125,-6.8131,9.8982,-1.1646,-6.0894,1.2074,3.7515,-3.4001,12.3231,-2.861,-23.8349,-7.2755,-5.7068,1.5325,5.8718,3359.5,2666.0,-15.5,-3658.0,3534.5,7755.4367962491715,-775.7459611883459,-3474.2159484875488,-114.79627041516044,-13.2938242713267,-3.229666832828346,77.00000000000001,7755.4367962491715,-775.7459611883459,-3474.2159484875488,-114.79627041516044,-13.2938242713267,-3.229666832828346,77.00000000000001,-652.3857485176165,5359.040675306746,5975.333377580719,45.657471887067096,41.830927872995886,9.792527184374508,1624.0001892169053,-652.3857485176165,5359.040675306746,5975.333377580719,45.657471887067096,41.830927872995886,9.792527184374508,1624.0001892169053
94,09:30:34.188,-4.8773,-8.5323,-9.4032,-5.7729,-7.6928,-14.2789,-0.853,-10.5029,-3.0334,-10.9687,-10.7246,-10.4702,6.6273,-7.5455,-9.8913,-3.6278,-0.3269,-7.066,7.9906,-6.5897,-29.6685,-10.4612,-10.1362,-1.1394,1.4573,3259.0,2670.5,-15.0,-3600.0,3477.0,7756.713859747285,-779.2814901310725,-3477.018136800204,-115.44740246311832,-13.260454665443843,-3.0495779540730883,76.99999999999999,7756.713859747285,-779.2814901310725,-3477.018136800204,-115.44740246311832,-13.260454665443843,-3.0495779540730883,76.99999999999999,-652.5826097619333,5349.808248691281,5968.458448851529,44.34510336212753,42.485518651939245,9.990544353606824,1624.0001520204496,-652.5826097619333,5349.808248691281,5968.458448851529,44.34510336212753,42.485518651939245,9.990544353606824,1624.0001520204496
95,09:30:34.190,-3.4174,-6.8686,-8.9761,-5.5874,-6.721,-13.671,-0.9835,-10.3711,-4.9692,-11.1136,-9.5032,-9.3818,6.2825,-7.8021,-8.9568,-3.3711,-0.0225,-6.2252,8.77,-6.0683,-30.4596,-9.5687,-9.2368,-0.2424,1.6517,3231.0,2678.5,-13.0,-3601.5,3398.0,7756.999999999999,-781.0,-3481.0,-115.99999999999996,-13.000000000000002,-3.0,76.99999999999999,7756.999999999999,-781.0,-3481.0,-115.99999999999996,-13.000000000000002,-3.0,76.99999999999999,-653.9999999999999,5340.000000000001,5964.0,43.000000000000014,43.0,10.0,1623.9999999999998,-653.9999999999999,5340.000000000001,5964.0,43.000000000000014,43.0,10.0,1623.9999999999998
96,09:30:34.192,0.6905,-2.5192,-5.5358,-1.8514,-3.0062,-9.4666,1.4557,-6.6967,-3.9986,-8.4327,-5.496,-5.0259,7.2081,-3.3473,-4.8413,0.6051,3.2877,-2.4074,12.9235,-2.8241,-27.6722,-6.2961,-4.5485,2.2989,5.8369,3274.0,2684.0,-11.0,-3677.5,3328.0,7755.946206958987,-780.1318754032803,-3486.284597739309,-116.39790330440772,-12.45639110543578,-3.1150707070475394,76.99999999999999,7755.946206958987,-780.1318754032803,-3486.284597739309,-116.39790330440772,-12.45639110543578,-3.1150707070475394,76.99999999999999,-656.939280532841,5330.025735463914,5963.383298493331,41.61256224322097,43.22051371942497,9.759974951293309,1623.9997250693395,-656.939280532841,5330.025735463914,5963.383298493331,41.61256224322097,43.22051371942497,9.759974951293309,1623.9997250693395
97,09:30:34.194,4.7593,1.639,-1.6224,2.7383,0.9756,-4.307,4.1115,-2.5154,-2.1386,-5.5079,-1.1048,-0.0423,7.5895,2.2805,-0.341,5.2889,6.9766,1.7118,17.417,0.5457,-23.9497,-2.8918,1.0124,4.28,11.2243,3362.5,2682.5,-8.0,-3824.0,3286.5,7753.943403869649,-777.1341354147099,-3491.932255130985,-116.65964688741718,-11.736713041312411,-3.344279150533634,77.0,7753.943403869649,-777.1341354147099,-3491.932255130985,-116.65964688741718,-11.736713041312411,-3.344279150533634,77.0,-660.8599223667062,5320.221277158849,5965.95186445387,40.37552492898004,43.1671692410961,9.339030730325817,1623.9994420524629,-660.8599223667062,5320.221277158849,5965.95186445387,40.37552492898004,43.1671692410961,9.339030730325817,1623.9994420524629
98,09:30:34.196,7.0783,3.8337,0.8346,5.9705,3.5099,-0.5243,5.396,-0.3314,-0.8678,-4.1867,2.0713,3.5052,6.7614,6.3933,2.4105,8.0529,9.0884,4.1087,19.9089,2.1496,-21.3547,-0.7198,5.036,4.8854,14.8043,3459.5,2674.5,-5.5,-3933.0,3288.5,7751.567497300819,-772.7704577245016,-3496.7376136530047,-116.82243881822266,-10.988839424471545,-3.615952240495812,77.00000000000001,7751.567497300819,-772.7704577245016,-3496.7376136530047,-116.82243881822266,-10.988839424471545,-3.615952240495812,77.00000000000001,-665.0109239341484,5310.903951121832,5970.528781167741,39.53220649312907,42.903567903054885,8.838099033711933,1623.9992965009162,-665.0109239341484,5310.903951121832,5970.528781167741,39.53220649312907,42.903567903054885,8.838099033711933,1623.9992965009162
99,09:30:34.198,7.7697,4.2408,1.555,7.3155,4.543,1.2797,5.4328,-0.439,-0.3572,-4.5557,3.9021,5.1999,5.2371,8.6963,3.1579,8.2787,9.5612,4.5673,20.0976,1.8946,-20.2345,0.253,6.9013,5.029,15.5698,3521.0,2659.0,-3.5,-4016.0,3324.0,7749.394393821324,-767.80452002286,-3499.4953147833503,-116.92348716601884,-10.360643871753483,-3.858416886972102,76.99999999999999,7749.394393821324,-767.80452002286,-3499.4953147833503,-116.92348716601884,-10.360643871753483,-3.858416886972102,76.99999999999999,-668.6412836677289,5302.391083389871,5975.937131921077,39.32592537151855,42.49331104334228,8.358111558065147,1623.9994339662462,-668.6412836677289,5302.391083389871,5975.937131921077,39.32592537151855,42.49331104334228,8.358111558065147,1623.9994339662462
100,09:30:34.200,8.0951,4.229,1.5977,7.7129,5.1625,2.1948,5.5028,-1.1534,0.1836,-5.4646,5.1675,5.9701,3.7442,10.4309,3.1432,7.26,9.7906,4.3181,19.4178,1.0992,-19.512,0.8342,7.6182,6.1351,14.9583,3526.5,2635.0,-1.5,-4129.0,3377.0,7748.0,-763.0,-3499.0,-117.0,-10.0,-4.0,76.99999999999999,7748.0,-763.0,-3499.0,-117.0,-10.0,-4.0,76.99999999999999,-671.0000000000001,5295.0,5981.0,40.0,42.0,8.0,1624.0,-671.0000000000001,5295.0,5981.0,40.0,42.0,8.0,1624.0
101,09:30:34.202,9.0405,4.9127,2.1065,8.3308,6.2722,3.6393,6.5975,-0.623,1.5252,-5.9079,6.5072,6.8845,2.4759,12.4674,3.6461,6.6268,11.0688,4.6198,19.4893,1.0856,-18.0546,1.5878,8.5791,8.5523,15.0932,3479.0,2616.0,0.0,-4091.5,3424.5,7747.825299160277,-759.0075562723284,-3494.4579856680757,-117.07865087828476,-10.003696366490724,-3.987539414299506,76.99999999999999,7747.825299160277,-759.0075562723284,-3494.4579856680757,-117.07865087828476,-10.003696366490724,-3.987539414299506,76.99999999999999,-671.6286003572711,5289.056204913409,5984.660948568299,41.70101397723683,41.48312668018649,7.83613453329104,1624.0010253297298,-671.6286003572711,5289.056204913409,5984.660948568299,41.70101397723683,41.48312668018649,7.83613453329104,1624.0010253297298
102,09:30:34.204,10.5477,6.3751,3.3018,9.5191,7.7624,6.0177,8.4894,1.5053,3.7754,-5.8678,7.9113,8.215,1.3055,14.3998,4.8926,6.8911,13.4354,5.6755,20.798,2.0765,-15.8536,2.3873,10.3934,11.124,16.6259,3400.0,2603.0,0.0,-3922.0,3448.5,7748.771581643986,-756.025771161069,-3486.7222877012723,-117.14397531468806,-10.264181290261572,-3.841916663318805,77.0,7748.771581643986,-756.025771161069,-3486.7222877012723,-117.14397531468806,-10.264181290261572,-3.841916663318805,77.0,-671.2387281408489,5284.917913788018,5986.345460300384,44.18861155313663,40.985745267532,7.82463924035709,1624.0020813870124,-671.2387281408489,5284.917913788018,5986.345460300384,44.18861155313663,40.985745267532,7.82463924035709,1624.0020813870124
103,09:30:34.206,11.9929,8.1071,4.6129,10.8747,8.9259,8.6586,10.1863,4.0921,6.6205,-5.8699,9.1042,9.5451,0.5126,15.3611,6.2983,7.4733,15.9788,6.8668,22.749,3.3753,-13.9296,2.868,12.7239,12.3255,18.3911,3317.0,2600.0,0.0,-3801.0,3438.5,7750.605214547555,-754.1402079136465,-3477.057596900436,-117.16997431194896,-10.622818030786853,-3.6025242051884705,77.00000000000001,7750.605214547555,-754.1402079136465,-3477.057596900436,-117.16997431194896,-10.622818030786853,-3.6025242051884705,77.00000000000001,-670.8345557457914,5282.951520205925,5985.599497748318,47.125702140416585,40.54680051478447,7.895076680777567,1624.00262477943,-670.8345557457914,5282.951520205925,5985.599497748318,47.125702140416585,40.54680051478447,7.895076680777567,1624.00262477943
104,09:30:34.208,13.2364,9.9877,5.7059,12.1722,9.5909,10.9513,11.2331,6.0468,10.0479,-5.8697,10.2604,10.6474,1.0049,15.4506,7.6043,7.9596,18.1255,7.919,24.802,4.5294,-13.1019,3.228,15.0316,11.8645,19.1255,3261.5,2604.5,0.0,-3613.0,3398.0,7753.092564967416,-753.4364297774819,-3466.728604066395,-117.13064887280652,-10.920969847541537,-3.3087544980386334,76.99999999999999,7753.092564967416,-753.4364297774819,-3466.728604066395,-117.13064887280652,-10.920969847541537,-3.3087544980386334,76.99999999999999,-671.4202555671562,5283.52341774922,5981.969023464166,50.17519515179909,40.20523717469112,7.977009414132051,1624.0021121145653,-671.4202555671562,5283.52341774922,5981.969023464166,50.17519515179909,40.20523717469112,7.977009414132051,1624.0021121145653
105,09:30:34.210,15.0742,12.6987,7.2678,14.0625,10.7209,13.3661,12.4565,7.7456,14.6241,-4.8098,12.222,12.1325,3.6676,16.161,9.5864,9.0654,20.4763,9.6619,27.343,6.1967,-12.8967,4.5071,17.3617,11.1758,19.2603,3250.0,2615.5,-1.0,-3226.5,3345.0,7756.0,-753.9999999999999,-3457.0,-117.0,-10.999999999999996,-3.0,76.99999999999999,7756.0,-753.9999999999999,-3457.0,-117.0,-10.999999999999996,-3.0,76.99999999999999,-674.0,5287.0,5975.0,53.0,40.0,8.0,1624.0,-674.0,5287.0,5975.0,53.0,40.0,8.0,1624.0
106,09:30:34.212,18.6225,17.1479,10.6397,17.727,13.7745,17.2018,15.3228,10.8034,20.8773,-1.502,15.9509,15.1399,8.5059,19.2873,13.5256,12.1688,24.2758,13.489,31.3299,9.7282,-11.7606,7.9676,20.4164,12.295,20.7415,3278.5,2626.0,-1.5,-2776.0,3292.5,7759.104596399909,-755.8298995074031,-3448.931459588383,-116.75949318245328,-10.752823428601232,-2.710771635754334,76.99999999999999,7759.104596399909,-755.8298995074031,-3448.931459588383,-116.75949318245328,-10.752823428601232,-2.710771635754334,76.99999999999999,-679.138318038076,5293.501444882444,5964.660907233468,55.31938184783379,39.95897955982863,7.911486915542351,1623.9961736117405,-679.138318038076,5293.501444882444,5964.660907233468,55.31938184783379,39.95897955982863,7.911486915542351,1623.9961736117405
107,09:30:34.214,24.2437,23.4885,16.5432,23.7519,19.3659,23.2566,20.4882,16.3464,28.3446,3.9185,21.692,20.2857,14.4755,25.2674,19.9315,17.853,30.0358,19.9729,37.1015,15.7757,-8.4585,14.026,24.898,16.1334,24.9982,3326.5,2629.5,-2.0,-2505.0,3264.5,7762.226269554416,-758.5787799410091,-3442.7625940639105,-116.4204518538306,-10.278561797641313,-2.456054196190797,77.0,7762.226269554416,-758.5787799410091,-3442.7625940639105,-116.4204518538306,-10.278561797641313,-2.456054196190797,77.0,-685.6411650699024,5302.163067689069,5952.610294344591,57.07802885847862,40.065849688775046,7.730412308245581,1623.9922323994867,-685.6411650699024,5302.163067689069,5952.610294344591,57.07802885847862,40.065849688775046,7.730412308245581,1623.9922323994867
108,09:30:34.216,30.9953,30.6478,24.0678,31.2721,26.4595,30.7296,26.9321,23.4752,35.3078,9.4223,28.5469,26.801,20.1243,32.3806,27.7429,24.9492,36.6782,27.9633,43.5937,23.2435,-3.3412,21.6155,30.7078,21.7018,31.2065,3371.5,2621.0,-3.0,-2360.0,3257.5,7765.195644508968,-761.8127106209118,-3438.527998745248,-116.00166393398152,-9.72788845238107,-2.245950938750191,77.00000000000001,7765.195644508968,-761.8127106209118,-3438.527998745248,-116.00166393398152,-9.72788845238107,-2.245950938750191,77.00000000000001,-691.8748530826878,5311.873968054467,5940.929227838988,58.27698494520601,40.29323003780706,7.493594243177752,1623.9902043813631,-691.8748530826878,5311.873968054467,5940.929227838988,58.27698494520601,40.29323003780706,7.493594243177752,1623.9902043813631
109,09:30:34.218,37.0101,36.7355,30.8865,38.1788,32.8159,37.4235,32.4694,29.4811,39.6323,12.1167,34.7585,32.6551,24.3461,37.5014,34.7254,31.0431,42.005,35.0264,48.7468,29.6245,1.7157,28.5299,36.6341,26.8681,36.6848,3394.0,2604.5,-5.0,-2233.5,3277.5,7767.843346309015,-765.0977608672112,-3436.262268951056,-115.52191734275472,-9.251476738080337,-2.090565120872971,76.99999999999999,7767.843346309015,-765.0977608672112,-3436.262268951056,-115.52191734275472,-9.251476738080337,-2.090565120872971,76.99999999999999,-696.2056940636508,5321.523245613247,5931.69877422225,58.917294021289365,40.61374025789284,7.237850785406504,1623.9921175754928,-696.2056940636508,5321.523245613247,5931.69877422225,58.917294021289365,40.61374025789284,7.237850785406504,1623.9921175754928
110,09:30:34.220,40.4216,39.9547,34.5703,42.2463,36.2852,41.0729,35.1311,31.7199,40.054,10.145,38.4733,35.6421,26.5887,37.9544,38.6905,33.9736,44.0492,38.8411,50.7222,32.4953,4.6384,32.5433,40.7881,29.8216,39.037,3387.5,2582.5,-6.5,-2075.5,3310.5,7770.0,-768.0000000000001,-3436.0,-115.0,-9.0,-2.0,76.99999999999999,7770.0,-768.0000000000001,-3436.0,-115.0,-9.0,-2.0,76.99999999999999,-697.0000000000001,5330.0,5927.000000000001,58.99999999999999,41.0,6.999999999999999,1623.9999999999995,-697.0000000000001,5330.0,5927.000000000001,58.99999999999999,41.0,6.999999999999999,1623.9999999999995
111,09:30:34.222,40.1976,39.4009,33.9624,42.3298,35.9234,40.6794,34.2282,29.5182,36.8568,3.9437,38.5322,34.6551,26.6269,33.3011,38.5856,33.0409,42.1752,38.4222,48.9186,30.949,4.5572,32.5354,41.5863,29.9549,37.9499,3353.0,2559.5,-7.0,-2076.0,3338.5,7771.596315240096,-770.1768456980606,-3437.680175978385,-114.45137639190176,-9.081009919104076,-1.977374042682888,76.99999999999999,7771.596315240096,-770.1768456980606,-3437.680175978385,-114.45137639190176,-9.081009919104076,-1.977374042682888,76.99999999999999,-693.2501274904291,5336.562015556817,5928.17542249782,58.55745863143017,41.42495508049901,6.805917804539368,1624.014280223308,-693.2501274904291,5336.562015556817,5928.17542249782,58.55745863143017,41.42495508049901,6.805917804539368,1624.014280223308
112,09:30:34.224,36.5226,35.3978,29.65,38.8553,32.2474,36.8996,30.4212,24.5193,31.5159,-4.0783,34.9418,30.2605,24.4933,25.9009,34.826,29.1069,37.2231,34.3842,44.153,25.9182,2.1695,28.9159,38.7151,27.6785,35.0562,3308.0,2542.0,-7.5,-2085.0,3352.0,7772.963340138361,-771.6511090748995,-3440.8593360430746,-113.87821726998853,-9.429571519172551,-1.9978665519175047,77.0,7772.963340138361,-771.6511090748995,-3440.8593360430746,-113.87821726998853,-9.429571519172551,-1.9978665519175047,77.0,-686.4526115795497,5341.941815455719,5933.613362321234,57.74727301295238,41.86285597736808,6.637711526660138,1624.0289890150398,-686.4526115795497,5341.941815455719,5933.613362321234,57.74727301295238,41.86285597736808,6.637711526660138,1624.0289890150398
113,09:30:34.226,30.6832,29.3264,23.3927,33.4177,26.7183,31.4252,25.0688,19.3235,25.8057,-11.0976,28.8559,24.2322,20.7822,19.7342,28.8965,23.8117,30.8585,28.3436,38.1174,19.3604,-1.0217,23.1929,33.4004,23.743,32.2612,3269.0,2537.5,-8.0,-2092.5,3348.5,7774.532207416578,-772.536949602708,-3444.99840811857,-113.27936995212468,-9.937628159688725,-2.029672039810654,77.00000000000001,7774.532207416578,-772.536949602708,-3444.99840811857,-113.27936995212468,-9.937628159688725,-2.029672039810654,77.00000000000001,-678.7300319234599,5347.240607576209,5940.963590895732,56.75835807876,42.28827933398743,6.466546346511295,1624.0365576951172,-678.7300319234599,5347.240607576209,5940.963590895732,56.75835807876,42.28827933398743,6.466546346511295,1624.0365576951172
114,09:30:34.228,24.4918,23.0071,17.0862,27.8433,20.9628,25.9588,19.5305,15.6813,21.1147,-15.481,22.0347,18.4289,16.827,18.009,22.5873,18.6495,24.7259,22.0523,32.5608,13.0967,-3.8062,17.0828,27.6393,18.841,30.2493,3247.5,2542.5,-8.5,-2250.5,3322.5,7776.7340497965315,-772.9485267536777,-3449.5583201293784,-112.65368175617358,-10.497123200136835,-2.040985018469204,76.99999999999999,7776.7340497965315,-772.9485267536777,-3449.5583201293784,-112.65368175617358,-10.497123200136835,-2.040985018469204,76.99999999999999,-672.2049681782438,5353.559599797803,5947.875879646823,55.77962876304465,42.675801793738046,6.263587444241534,1624.029417583463,-672.2049681782438,5353.559599797803,5947.875879646823,55.77962876304465,42.675801793738046,6.263587444241534,1624.029417583463
115,09:30:34.230,19.3977,17.8133,11.933,23.2726,16.1344,21.4265,14.7572,13.6322,18.2016,-17.4099,15.9815,13.7915,14.1824,21.0273,17.2059,14.4043,19.8387,16.7217,28.5386,8.0777,-5.9027,11.7386,22.828,13.614,28.3721,3247.5,2553.5,-8.5,-2331.5,3287.5,7780.0,-772.9999999999999,-3454.0,-111.99999999999996,-10.999999999999998,-2.0,76.99999999999999,7780.0,-772.9999999999999,-3454.0,-111.99999999999996,-10.999999999999998,-2.0,76.99999999999999,-669.0000000000001,5361.999999999999,5952.0,55.0,43.00000000000001,6.000000000000001,1624.0000000000002,-669.0000000000001,5361.999999999999,5952.0,55.0,43.00000000000001,6.000000000000001,1624.0000000000002
116,09:30:34.232,15.7336,13.978,8.1448,19.7397,12.5763,17.7424,11.0998,11.9864,17.1398,-18.3108,11.2385,10.0889,13.6212,25.9211,13.0661,11.0263,16.3399,12.6896,25.9674,4.3044,-7.9038,7.4606,18.8654,8.6502,25.6403,3260.5,2563.5,-8.5,-2266.5,3254.0,7784.526142639711,-772.7987177003566,-3457.90783649808,-111.32300124993894,-11.36313689498265,-1.8917321935140252,76.99999999999999,7784.526142639711,-772.7987177003566,-3457.90783649808,-111.32300124993894,-11.36313689498265,-1.8917321935140252,76.99999999999999,-670.5971720002048,5373.098492890293,5951.677402775251,54.53078362644529,43.22920011817574,5.664841866299902,1623.9467054950271,-670.5971720002048,5373.098492890293,5951.677402775251,54.53078362644529,43.22920011817574,5.664841866299902,1623.9467054950271
117,09:30:34.234,12.7031,10.6716,5.179,16.4764,9.8802,14.1666,8.2944,9.4923,17.2996,-19.6476,7.3663,6.4971,14.5765,28.6871,9.5631,7.9015,13.6741,9.4987,23.7656,1.2027,-10.7596,3.9173,14.5721,4.2724,21.6915,3277.0,2569.0,-8.0,-2213.5,3231.0,7789.568369892147,-772.4247837593961,-3461.360061763798,-110.65067906621373,-11.603152125669132,-1.7684795961390845,77.0,7789.568369892147,-772.4247837593961,-3461.360061763798,-110.65067906621373,-11.603152125669132,-1.7684795961390845,77.0,-675.916388611891,5385.133670488071,5948.016256370484,54.17287908971067,43.30672640175349,5.318741585113317,1623.8918115403544,-675.916388611891,5385.133670488071,5948.016256370484,54.17287908971067,43.30672640175349,5.318741585113317,1623.8918115403544
118,09:30:34.236,9.2704,6.9542,2.3417,12.7525,7.3767,10.0634,5.7621,5.7564,17.5728,-21.9281,3.6761,2.5235,15.6762,27.1004,5.8981,4.4486,11.1451,6.4253,20.6837,-1.8159,-15.12,0.6648,9.1272,0.4356,17.0055,3288.0,2564.0,-7.0,-2225.0,3222.5,7794.147525824722,-771.9514909682571,-3464.558368780477,-110.0168562575193,-11.761598908864231,-1.6993609020071831,77.00000000000001,7794.147525824722,-771.9514909682571,-3464.558368780477,-110.0168562575193,-11.761598908864231,-1.6993609020071831,77.00000000000001,-683.2370192234707,5395.819601640697,5942.816408578093,53.64958273975356,43.16965262624341,5.040220370776932,1623.8635648381678,-683.2370192234707,5395.819601640697,5942.816408578093,53.64958273975356,43.16965262624341,5.040220370776932,1623.8635648381678
119,09:30:34.238,5.2827,2.8761,-0.5554,8.6526,4.8179,5.603,3.1982,1.4293,16.9809,-24.5501,0.1192,-1.4245,15.9221,22.167,1.9784,0.7635,8.5697,3.2228,16.365,-4.8441,-20.8183,-2.3466,3.1955,-2.9464,12.5143,3284.0,2547.0,-5.5,-2154.5,3229.0,7797.284454504866,-771.4521321180786,-3467.704450531437,-109.45535563254964,-11.88003046137296,-1.7534948052502053,76.99999999999999,7797.284454504866,-771.4521321180786,-3467.704450531437,-109.45535563254964,-11.88003046137296,-1.7534948052502053,76.99999999999999,-690.8384332233703,5402.870355195553,5937.877707190465,52.68419092653051,42.7550525671554,4.907799437626954,1623.890212090654,-690.8384332233703,5402.870355195553,5937.877707190465,52.68419092653051,42.7550525671554,4.907799437626954,1623.890212090654
120,09:30:34.240,1.8063,-0.3104,-2.9201,5.1522,2.7343,1.855,1.0058,-2.2556,15.3016,-26.5112,-2.4763,-4.2352,15.3624,16.9011,-1.2845,-2.2032,6.5237,0.5143,11.78,-7.2886,-26.7921,-4.5801,-1.3592,-5.513,9.1298,3266.5,2524.5,-3.5,-1872.0,3242.5,7798.000000000001,-770.9999999999998,-3470.9999999999995,-109.0,-12.0,-2.0,76.99999999999999,7798.000000000001,-770.9999999999998,-3470.9999999999995,-109.0,-12.0,-2.0,76.99999999999999,-696.9999999999999,5404.0,5935.000000000001,50.99999999999999,41.99999999999999,4.999999999999999,1624.0000000000002,-696.9999999999999,5404.0,5935.000000000001,50.99999999999999,41.99999999999999,4.999999999999999,1624.0000000000002
121,09:30:34.242,0.3223,-1.1227,-3.7528,3.4032,2.0973,0.1101,0.0867,-4.1963,13.1313,-27.3552,-3.0574,-4.8569,14.6514,13.6011,-2.6233,-3.2169,5.909,-0.5888,8.5679,-8.197,-31.5925,-5.1798,-2.9062,-6.4339,7.4692,3246.0,2503.5,-2.0,-1606.5,3258.5,7795.643114201063,-770.6762835005119,-3474.5284780293027,-108.67261860834164,-12.154442500965672,-2.4716971832610204,76.99999999999999,7795.643114201063,-770.6762835005119,-3474.5284780293027,-108.67261860834164,-12.154442500965672,-2.4716971832610204,76.99999999999999,-700.377184508754,5397.8040128820185,5935.594966401175,48.439406862787536,40.88224444679797,5.374714730260777,1624.2068977965837,-700.377184508754,5397.8040128820185,5935.594966401175,48.439406862787536,40.88224444679797,5.374714730260777,1624.2068977965837
122,09:30:34.244,1.5349,0.8784,-2.4282,3.8527,3.5317,0.9451,1.0922,-3.9655,11.2967,-27.5123,-1.2713,-3.0086,14.1094,12.1697,-1.4519,-1.6817,7.1962,0.6117,7.8135,-6.9419,-34.2267,-3.5518,-1.2338,-5.0285,7.735,3226.5,2485.5,-2.0,-1417.5,3267.0,7790.875180293064,-770.5937558875154,-3477.900416901741,-108.44706646515507,-12.341819978151552,-3.0562150635262446,77.0,7790.875180293064,-770.5937558875154,-3477.900416901741,-108.44706646515507,-12.341819978151552,-3.0562150635262446,77.0,-701.1298339728947,5386.403502592012,5939.521612196835,45.32121062820235,39.54223841561748,6.007322132886264,1624.467764823544,-701.1298339728947,5386.403502592012,5939.521612196835,45.32121062820235,39.54223841561748,6.007322132886264,1624.467764823544
123,09:30:34.246,4.9041,4.7357,0.7661,5.9797,6.7822,3.836,3.8442,-1.919,10.2202,-27.7211,2.2135,0.6844,13.4136,10.9121,1.678,1.9016,10.0397,3.788,9.3479,-3.736,-34.7242,0.1475,2.5679,-1.4347,9.6684,3215.5,2479.5,-1.5,-1338.5,3263.0,7784.685689284538,-770.8730865242628,-3480.608116759528,-108.28520501779776,-12.55197620485449,-3.604884352160663,77.00000000000001,7784.685689284538,-770.8730865242628,-3480.608116759528,-108.28520501779776,-12.55197620485449,-3.604884352160663,77.00000000000001,-699.7938911826591,5372.800985861004,5946.250774791903,42.08331096222499,38.16111016103869,6.852572170380964,1624.725182952213,-699.7938911826591,5372.800985861004,5946.250774791903,42.08331096222499,38.16111016103869,6.852572170380964,1624.725182952213
124,09:30:34.248,9.2112,8.9402,4.7973,8.8007,10.8915,7.6093,7.4844,1.1126,9.8466,-28.1366,6.2225,5.1201,12.2425,8.7087,5.5739,6.3479,13.5761,7.8142,12.1078,0.4598,-33.9972,4.9893,7.1613,3.3752,12.6096,3218.0,2482.0,-1.0,-1367.5,3249.0,7778.064132184005,-771.6349447740071,-3482.1438777448766,-108.14889571362689,-12.774754954371726,-3.969035760530236,76.99999999999999,7778.064132184005,-771.6349447740071,-3482.1438777448766,-108.14889571362689,-12.774754954371726,-3.969035760530236,76.99999999999999,-696.9052989282814,5359.998979419992,5955.253291591316,39.16360753083036,36.91998793763933,7.865214805250895,1624.9217340539212,-696.9052989282814,5359.998979419992,5955.253291591316,39.16360753083036,36.91998793763933,7.865214805250895,1624.9217340539212
125,09:30:34.250,13.3986,12.511,8.5461,11.5237,14.8176,11.1973,11.1095,4.2534,10.0124,-28.1058,9.8144,9.2517,11.0004,6.1593,9.2394,10.6056,16.9971,11.5309,15.003,4.5153,-33.1944,9.713,11.6972,8.1991,15.6785,3225.0,2493.0,-0.5,-1492.5,3230.5,7772.000000000002,-773.0,-3482.0,-108.0,-13.0,-4.0,76.99999999999999,7772.000000000002,-773.0,-3482.0,-108.0,-13.0,-4.0,76.99999999999999,-693.0,5351.0,5965.999999999999,37.0,36.0,9.0,1624.9999999999995,-693.0,5351.0,5965.999999999999,37.0,36.0,9.0,1624.9999999999995
126,09:30:34.252,16.811,15.2111,11.2909,13.6872,17.8368,13.9565,14.1579,6.8229,10.6208,-26.9035,12.5032,12.3156,10.5961,4.6404,12.1814,14.1632,19.7752,14.2503,17.3538,7.6363,-33.155,13.2492,15.5878,12.1337,18.0139,3229.5,2503.5,-0.5,-1613.0,3209.5,7767.317400556039,-774.9761482975953,-3479.9302513847124,-107.81052431669409,-13.219093101154924,-3.6054790734422353,76.99999999999999,7767.317400556039,-774.9761482975953,-3479.9302513847124,-107.81052431669409,-13.219093101154924,-3.6054790734422353,76.99999999999999,-688.5500899647801,5347.989455581628,5977.862731620051,35.91158892240168,35.52982209463119,10.212299212657651,1624.9217033186392,-688.5500899647801,5347.989455581628,5977.862731620051,35.91158892240168,35.52982209463119,10.212299212657651,1624.9217033186392
127,09:30:34.254,18.8629,16.9059,12.669,14.8502,19.4762,15.4575,16.2389,8.3752,11.3722,-24.6028,13.9333,13.7962,11.3783,4.6607,14.0705,16.809,21.4708,15.6473,18.6738,9.4288,-34.3016,14.9595,17.9799,14.5725,19.0249,3226.5,2510.0,0.0,-1659.0,3194.0,7764.178908935593,-777.1201926905427,-3476.73427062924,-107.59305507316527,-13.429567961725208,-2.9186601497566165,77.0,7764.178908935593,-777.1201926905427,-3476.73427062924,-107.59305507316527,-13.429567961725208,-2.9186601497566165,77.0,-683.7722754965297,5349.8843191438655,5989.8172948421925,35.74227839747391,35.428319935774056,11.459969883343406,1624.7251291654695,-683.7722754965297,5349.8843191438655,5989.8172948421925,35.74227839747391,35.428319935774056,11.459969883343406,1624.7251291654695
128,09:30:34.256,18.9256,17.1067,12.4497,14.5021,19.3741,15.342,16.8885,8.7875,11.5671,-22.0068,13.6576,13.4713,12.4436,5.626,14.4648,18.2981,21.6418,15.4821,18.4531,9.7308,-36.7207,14.6148,17.9722,15.0228,18.6614,3211.0,2503.5,0.0,-1644.5,3180.0,7762.581717037131,-778.8761629346916,-3473.4731641814137,-107.37032367128955,-13.630496271717936,-2.129101689350297,77.00000000000001,7762.581717037131,-778.8761629346916,-3473.4731641814137,-107.37032367128955,-13.630496271717936,-2.129101689350297,77.00000000000001,-678.8194160458917,5354.784454915285,6000.740492254303,36.21717341134502,35.561906729601226,12.701490947699757,1624.4677033529804,-678.8194160458917,5354.784454915285,6000.740492254303,36.21717341134502,35.561906729601226,12.701490947699757,1624.4677033529804
129,09:30:34.258,16.8656,15.4342,10.6451,12.5484,17.51,13.6684,15.8327,8.4834,10.5413,-19.63,11.4996,11.6701,12.2659,7.2487,13.1603,18.509,20.2134,13.7434,16.5098,8.6386,-40.0615,12.4084,15.5767,13.3324,17.5866,3190.0,2488.5,0.5,-1689.0,3181.0,7762.523016759112,-779.688088785894,-3471.2080384890564,-107.16506151294246,-13.820949721140536,-1.426362152629,76.99999999999999,7762.523016759112,-779.688088785894,-3471.2080384890564,-107.16506151294246,-13.820949721140536,-1.426362152629,76.99999999999999,-673.8443710634999,5360.789727124473,6009.509126444281,37.06137895014436,35.796995682285655,13.895341341371322,1624.2068516936604,-673.8443710634999,5360.789727124473,6009.509126444281,37.06137895014436,35.796995682285655,13.895341341371322,1624.2068516936604
130,09:30:34.260,13.6389,12.4606,7.9044,9.8433,14.6098,11.3364,13.5561,8.4463,8.4259,-16.9545,8.1436,9.416,10.1549,10.5973,10.7913,17.9,17.9197,11.0908,13.5514,6.7365,-43.374,9.1071,12.2613,10.2136,16.9451,3169.5,2468.5,1.0,-1839.5,3183.0,7763.999999999999,-778.9999999999998,-3470.999999999999,-107.0,-13.999999999999996,-0.9999999999999998,76.99999999999999,7763.999999999999,-778.9999999999998,-3470.999999999999,-107.0,-13.999999999999996,-0.9999999999999998,76.99999999999999,-669.0,5366.0,6015.000000000002,37.99999999999999,35.99999999999999,15.0,1624.0,-669.0,5366.0,6015.000000000002,37.99999999999999,35.99999999999999,15.0,1624.0
131,09:30:34.262,10.9915,9.7291,5.5423,7.9253,12.0529,9.8017,11.3458,9.6349,6.2711,-13.0367,5.1253,8.0316,7.0509,16.9963,8.771,17.526,16.091,8.8535,11.059,5.0569,-45.3878,6.0223,10.1201,7.2468,17.5856,3153.0,2447.0,1.0,-1908.5,3186.0,7766.895283574783,-776.499123309108,-3473.5265164318434,-106.89328412488172,-14.16918509441489,-0.9863865229696848,76.99999999999999,7766.895283574783,-776.499123309108,-3473.5265164318434,-106.89328412488172,-14.16918509441489,-0.9863865229696848,76.99999999999999,-664.4224556321205,5368.974164791468,6016.42610711863,38.81023744760472,36.07046717467673,15.984088419110062,1623.8902889288584,-664.4224556321205,5368.974164791468,6016.42610711863,38.81023744760472,36.07046717467673,15.984088419110062,1623.8902889288584
132,09:30:34.264,10.2232,8.6075,4.799,7.8962,11.0282,10.015,10.4293,12.0545,5.1389,-7.9583,3.9306,8.2883,4.7825,25.6448,8.3155,18.3082,15.7087,8.2155,10.2782,4.4938,-45.3411,4.4608,10.2056,5.9201,19.2055,3151.0,2430.0,1.0,-1915.5,3188.0,7770.633183964558,-772.8454733503153,-3477.930500581291,-106.84471324218322,-14.33990817494816,-1.3091443374463627,77.0,7770.633183964558,-772.8454733503153,-3477.930500581291,-106.84471324218322,-14.33990817494816,-1.3091443374463627,77.0,-660.1810640409755,5370.107220832528,6014.345208434419,39.477675781901134,36.0404818412857,16.856798333743104,1623.8637185145762,-660.1810640409755,5370.107220832528,6014.345208434419,39.477675781901134,36.0404818412857,16.856798333743104,1623.8637185145762
133,09:30:34.266,11.1396,9.0707,5.8618,9.45,11.612,11.565,10.9436,14.4172,5.0366,-3.3779,4.9083,9.7941,4.5153,32.8468,9.4222,20.2112,16.589,9.2408,11.2216,5.1067,-43.6813,4.8762,11.6363,6.4436,20.3174,3161.0,2423.5,1.5,-1955.0,3186.0,7774.523442566938,-768.9422617369707,-3482.971226514814,-106.84950029704386,-14.526038708273896,-1.8387088904379167,77.00000000000001,7774.523442566938,-768.9422617369707,-3482.971226514814,-106.84950029704386,-14.526038708273896,-1.8387088904379167,77.00000000000001,-656.3284446337717,5370.253194477855,6009.651256190893,40.039995392394935,35.975262920556354,17.637464038820767,1623.8920036358654,-656.3284446337717,5370.253194477855,6009.651256190893,40.039995392394935,35.975262920556354,17.637464038820767,1623.8920036358654
134,09:30:34.268,12.3113,9.77,7.665,11.1082,12.7295,13.0328,11.8631,15.0448,4.9268,-1.191,7.034,11.2761,5.9342,34.4591,10.9002,22.2562,17.6097,10.7878,12.7542,6.0892,-41.8185,6.4766,12.4495,7.5997,19.422,3177.5,2425.5,2.5,-1894.5,3181.0,7777.875800779547,-765.6927000824159,-3487.4079682988927,-106.90285823460302,-14.741446161066529,-2.4455156289532334,76.99999999999999,7777.875800779547,-765.6927000824159,-3487.4079682988927,-106.90285823460302,-14.741446161066529,-2.4455156289532334,76.99999999999999,-652.91721681771,5370.266112082121,6003.238202631575,40.53487666859275,35.94002933321799,18.345419829265985,1623.9468591714362,-652.91721681771,5370.266112082121,6003.238202631575,40.53487666859275,35.94002933321799,18.345419829265985,1623.9468591714362
135,09:30:34.270,12.4492,9.4133,8.804,11.5253,13.139,13.3392,12.0506,13.4134,3.8951,-1.4639,8.7813,11.6211,7.8482,29.6179,11.4937,23.4544,17.8341,11.5255,13.7111,6.5586,-41.0164,7.8027,11.4207,7.9254,16.5297,3188.0,2434.5,3.5,-1735.5,3170.0,7780.0,-763.9999999999998,-3489.999999999999,-107.0,-15.0,-3.0,76.99999999999999,7780.0,-763.9999999999998,-3489.999999999999,-107.0,-15.0,-3.0,76.99999999999999,-650.0,5371.0,5995.999999999999,41.0,36.00000000000001,19.000000000000004,1624.0,-650.0,5371.0,5995.999999999999,41.0,36.00000000000001,19.000000000000004,1624.0
136,09:30:34.272,11.5061,8.0075,8.7047,10.5767,12.4751,12.7139,11.3211,10.8066,2.1438,-1.9404,9.2733,10.745,9.3831,21.9287,10.9494,23.699,17.3646,11.0498,13.848,6.3817,-41.5036,7.8594,9.0745,7.0477,13.4839,3186.5,2443.0,4.0,-1531.0,3158.0,7780.389465144826,-764.4833584659701,-3489.883682887911,-107.13633918377889,-15.30416652118577,-3.400974834679128,76.99999999999999,7780.389465144826,-764.4833584659701,-3489.883682887911,-107.13633918377889,-15.30416652118577,-3.400974834679128,76.99999999999999,-647.6560875067319,5372.985885252503,5988.768839905429,41.47946128718005,36.20430920666188,19.61934711090336,1624.0291409659276,-647.6560875067319,5372.985885252503,5988.768839905429,41.47946128718005,36.20430920666188,19.61934711090336,1624.0291409659276
137,09:30:34.274,10.398,6.6248,7.8558,9.1368,11.2905,12.2252,10.3435,9.1878,0.5864,-0.0038,8.6508,9.4519,10.4418,16.5046,9.9386,23.6553,16.9947,9.9474,13.6243,6.122,-42.757,6.7501,6.9487,5.7528,12.4394,3168.0,2448.0,4.0,-1532.5,3148.0,7779.272355206179,-766.6259139081901,-3487.7037270455967,-107.30809195810173,-15.610799338482696,-3.6607625004584894,77.0,7779.272355206179,-766.6259139081901,-3487.7037270455967,-107.30809195810173,-15.610799338482696,-3.6607625004584894,77.0,-646.0714683395585,5375.462797526023,5982.129871420132,42.04301847492302,36.53775269908324,20.216836781686517,1624.0359967762254,-646.0714683395585,5375.462797526023,5982.129871420132,42.04301847492302,36.53775269908324,20.216836781686517,1624.0359967762254
138,09:30:34.276,9.7235,5.9792,6.9169,7.8557,10.1256,12.3616,9.5284,9.2151,-0.5611,4.6542,7.4511,8.4207,11.1209,15.4617,9.0126,23.7879,17.0418,8.8085,13.1732,6.1478,-44.6389,5.2175,5.9295,4.7645,13.7134,3139.5,2443.0,2.5,-1586.0,3138.0,7777.060512695118,-769.6267901174235,-3484.4819297593285,-107.511675140535,-15.865348895186608,-3.8200627488982266,77.00000000000001,7777.060512695118,-769.6267901174235,-3484.4819297593285,-107.511675140535,-15.865348895186608,-3.8200627488982266,77.00000000000001,-645.4588054190195,5377.346767173291,5976.606482982125,42.76684501907564,36.96904158817345,20.80465289701773,1624.0282821035596,-645.4588054190195,5377.346767173291,5976.606482982125,42.76684501907564,36.96904158817345,20.80465289701773,1624.0282821035596
139,09:30:34.278,8.9202,5.4279,5.7623,6.3177,8.7093,12.2407,8.2484,9.3996,-2.5197,9.3802,5.7997,7.3618,11.0136,16.2217,7.8252,23.6428,16.6909,7.3655,11.761,5.9274,-48.0574,3.6462,5.3472,3.6818,15.1275,3107.5,2432.0,1.0,-1623.5,3130.5,7774.165780122704,-772.6851108844392,-3481.2400883153723,-107.74350554864564,-16.013265634593758,-3.9195753315587134,76.99999999999999,7774.165780122704,-772.6851108844392,-3481.2400883153723,-107.74350554864564,-16.013265634593758,-3.9195753315587134,76.99999999999999,-646.0307616656537,5377.553824547038,5972.722063029409,43.727114375485954,37.46688698484266,21.39497934156625,1624.0137116205954,-646.0307616656537,5377.553824547038,5972.722063029409,43.727114375485954,37.46688698484266,21.39497934156625,1624.0137116205954
140,09:30:34.280,6.7996,3.5541,3.5914,3.5255,6.24,10.3861,5.39,7.4138,-6.9978,10.7271,3.322,5.2588,9.3701,14.2314,5.5164,22.237,14.6595,4.7825,8.4709,4.4022,-54.2651,1.6607,3.6886,1.3625,13.7289,3083.0,2412.0,0.0,-1549.5,3122.5,7770.999999999998,-775.0000000000001,-3479.0,-108.0,-16.0,-3.999999999999999,76.99999999999999,7770.999999999998,-775.0000000000001,-3479.0,-108.0,-16.0,-3.999999999999999,76.99999999999999,-648.0,5375.000000000001,5971.0,45.0,38.00000000000001,22.0,1623.9999999999995,-648.0,5375.000000000001,5971.0,45.0,38.00000000000001,22.0,1623.9999999999995
141,09:30:34.282,2.9197,-0.2363,0.0229,-0.7972,2.4762,6.3333,0.7142,2.382,-14.4215,7.4226,-0.1552,1.5318,5.9693,7.3341,1.842,19.1937,10.5722,0.8063,3.4235,1.151,-63.3966,-1.2177,0.2042,-2.6175,8.4632,3074.0,2393.0,0.0,-1601.0,3118.5,7767.938855845906,-775.9594428270118,-3478.402752016508,-108.28135914000296,-15.790148820842276,-4.089714138314156,76.99999999999999,7767.938855845906,-775.9594428270118,-3478.402752016508,-108.28135914000296,-15.790148820842276,-4.089714138314156,76.99999999999999,-651.4491943409497,5369.0262941985175,5971.674533259643,46.61591740367607,38.53629599867612,22.6185231372774,1623.993147207431,-651.4491943409497,5369.0262941985175,5971.674533259643,46.61591740367607,38.53629599867612,22.6185231372774,1623.993147207431
142,09:30:34.284,-1.6043,-4.7636,-4.0405,-5.4682,-1.56,1.4261,-4.4567,-4.0662,-23.172,1.3755,-3.9059,-2.9946,1.6669,-2.4001,-2.1785,15.444,5.6534,-3.4953,-1.8035,-2.8521,-73.7385,-4.5991,-4.0922,-7.0548,1.3377,3082.0,2377.0,0.0,-1691.0,3115.5,7765.2133952107215,-775.7068710169264,-3478.5665912363165,-108.60291892541048,-15.424894471121464,-4.167805660720278,77.0,7765.2133952107215,-775.7068710169264,-3478.5665912363165,-108.60291892541048,-15.424894471121464,-4.167805660720278,77.0,-655.9410626007889,5360.673589063377,5973.823305885035,48.42225031840905,39.04050736238226,23.195854539512528,1623.9922943805218,-655.9410626007889,5360.673589063377,5973.823305885035,48.42225031840905,39.04050736238226,23.195854539512528,1623.9922943805218
143,09:30:34.286,-4.6614,-7.743,-6.777,-8.46,-4.0736,-1.9994,-8.0145,-8.9652,-30.6,-3.9767,-6.4108,-6.3099,-2.0483,-10.7205,-4.7933,12.7501,2.0368,-6.2535,-5.0774,-5.7099,-82.5359,-7.0807,-6.9036,-9.8203,-3.9994,3103.0,2370.0,-1.0,-1845.0,3116.0,7763.018506652585,-774.5745777933357,-3478.2290544478697,-108.98379914081634,-14.964565710979736,-4.201040113969298,77.00000000000001,7763.018506652585,-774.5745777933357,-3478.2290544478697,-108.98379914081634,-14.964565710979736,-4.201040113969298,77.00000000000001,-660.9083336901507,5351.407736828984,5976.234811880604,50.22062453130312,39.47657072675014,23.66392437310872,1623.9948679498968,-660.9083336901507,5351.407736828984,5976.234811880604,50.22062453130312,39.47657072675014,23.66392437310872,1623.9948679498968
144,09:30:34.288,-4.5789,-7.431,-6.7461,-8.2944,-3.7651,-2.2559,-8.5627,-10.2019,-34.7684,-6.1324,-6.2836,-6.5266,-4.0503,-14.598,-4.7298,12.481,1.3425,-6.1144,-5.1238,-5.9017,-87.6497,-7.2043,-6.1952,-9.5094,-4.9197,3126.5,2370.5,-3.0,-2153.5,3113.5,7761.5490787296285,-772.8948563798293,-3476.127678439614,-109.443119570815,-14.469491300558447,-4.156183044812197,76.99999999999999,7761.5490787296285,-772.8948563798293,-3476.127678439614,-109.443119570815,-14.469491300558447,-4.156183044812197,76.99999999999999,-665.7837365196772,5342.694589729722,5977.697545250781,51.812665829465566,39.808422727412186,23.9546628044701,1623.9982943461812,-665.7837365196772,5342.694589729722,5977.697545250781,51.812665829465566,39.808422727412186,23.9546628044701,1623.9982943461812
145,09:30:34.290,-1.2218,-3.7691,-3.9099,-4.9907,-0.7227,0.6799,-6.2335,-7.6917,-35.3413,-4.5824,-3.2708,-3.2116,-4.1436,-13.6804,-2.0122,14.7197,3.7638,-3.1433,-2.2368,-3.2554,-88.6531,-4.6264,-1.6118,-6.4333,-1.3716,3137.0,2377.5,-5.0,-2514.0,3112.0,7760.999999999999,-771.0,-3471.0,-110.0,-13.999999999999998,-4.0,76.99999999999999,7760.999999999999,-771.0,-3471.0,-110.0,-13.999999999999998,-4.0,76.99999999999999,-670.0,5336.000000000001,5977.0,53.0,39.99999999999999,24.0,1624.0000000000002,-670.0,5336.000000000001,5977.0,53.0,39.99999999999999,24.0,1624.0000000000002
146,09:30:34.292,4.0078,1.7939,0.4751,0.0978,3.7627,5.4443,-2.2461,-2.7891,-33.1768,-0.1006,1.4784,2.3147,-2.8081,-9.1776,2.1795,18.3592,8.2547,1.3723,2.1306,1.1372,-86.6518,-0.4011,5.2163,-2.1272,4.6993,3133.0,2384.5,-7.0,-2819.0,3107.5,7761.495111471539,-769.2548702259829,-3462.169309046051,-110.65822425620978,-13.607238195444834,-3.7201686120643296,76.99999999999999,7761.495111471539,-769.2548702259829,-3462.169309046051,-110.65822425620978,-13.607238195444834,-3.7201686120643296,76.99999999999999,-672.987135129473,5332.420937953421,5973.2610270559935,53.632869098117446,40.02650679863417,23.754560339987627,1623.998270204347,-672.987135129473,5332.420937953421,5973.2610270559935,53.632869098117446,40.02650679863417,23.754560339987627,1623.998270204347
147,09:30:34.294,9.096,7.377,4.8131,5.1978,8.1304,10.314,2.1179,3.0305,-29.4854,6.3268,6.077,7.8609,-0.6221,-2.2873,6.3,21.9215,13.3718,5.8468,6.3215,5.7748,-83.3054,3.8204,11.6168,1.9355,11.0412,3107.5,2387.0,-8.5,-3054.5,3100.0,7762.874063950924,-768.1546020241038,-3451.301908009131,-111.36023234025744,-13.305622777030694,-3.3880148566604507,77.0,7762.874063950924,-768.1546020241038,-3451.301908009131,-111.36023234025744,-13.305622777030694,-3.3880148566604507,77.0,-674.1642812572946,5331.578846220455,5966.920905039723,53.75598025144438,39.908217851388684,23.26374506026434,1623.9948257016868,-674.1642812572946,5331.578846220455,5966.920905039723,53.75598025144438,39.908217851388684,23.26374506026434,1623.9948257016868
148,09:30:34.296,12.5267,11.6632,8.0453,8.9821,11.3795,14.0536,6.1188,8.8128,-25.426,13.7291,9.0074,11.6724,1.9815,5.9406,9.2094,24.3611,17.9683,9.2039,9.1973,9.5656,-79.9852,6.8779,15.3962,5.1448,16.1998,3071.5,2325.5,-10.0,-3262.5,3088.0,7764.90546069454,-768.2268987092333,-3440.6498524491917,-112.03312829619996,-13.100388260894231,-3.0957767952245683,77.00000000000001,7764.90546069454,-768.2268987092333,-3440.6498524491917,-112.03312829619996,-13.100388260894231,-3.0957767952245683,77.00000000000001,-672.94785982038,5332.7262855107765,5958.750269495461,53.46265685571274,39.6766755048262,22.59564961054756,1623.9922460968533,-672.94785982038,5332.7262855107765,5958.750269495461,53.46265685571274,39.6766755048262,22.59564961054756,1623.9922460968533
149,09:30:34.298,13.9237,14.2574,9.8708,10.9335,13.2839,16.1775,9.4632,13.8516,-22.0694,20.8193,9.9048,13.2233,4.586,13.801,10.5332,25.3632,21.395,11.1166,10.3536,12.1193,-77.5003,8.5876,15.9499,7.5644,19.4451,3033.5,2145.5,-11.5,-3400.5,3077.0,7767.357904958771,-769.9994635962425,-3432.4651979261635,-112.6040161680952,-12.996769163171772,-2.935692489192373,76.99999999999999,7767.357904958771,-769.9994635962425,-3432.4651979261635,-112.6040161680952,-12.996769163171772,-2.935692489192373,76.99999999999999,-668.7542922556421,5335.115816534065,5949.51975596746,52.84622230665384,39.363422105509024,21.818369440553504,1623.99311099468,-668.7542922556421,5335.115816534065,5949.51975596746,52.84622230665384,39.363422105509024,21.818369440553504,1623.99311099468
150,09:30:34.300,13.9635,15.4897,10.4598,11.2507,14.1099,16.8125,11.9746,17.3517,-20.1927,26.1233,9.5187,13.0835,6.7343,19.0289,10.5961,25.1582,23.4029,11.8098,9.9976,13.5796,-76.1891,9.4397,14.2697,9.3016,20.2787,3011.0,1982.0,-14.0,-3516.0,3066.0,7770.0,-774.0000000000001,-3429.0,-113.0,-13.0,-3.0,76.99999999999999,7770.0,-774.0000000000001,-3429.0,-113.0,-13.0,-3.0,76.99999999999999,-661.0000000000001,5338.0,5940.000000000001,52.0,39.00000000000001,21.0,1624.0,-661.0000000000001,5338.0,5940.000000000001,52.0,39.00000000000001,21.0,1624.0
151,09:30:34.302,13.6903,15.9685,10.0925,10.5013,14.215,16.4127,13.4746,18.6549,-19.9047,28.7575,8.9353,12.1465,8.1555,20.2951,10.0526,24.1294,24.0085,11.7219,8.6485,14.2765,-76.0789,9.9757,11.9107,10.1954,18.3866,3004.5,1934.5,-17.0,-3692.0,3055.0,7772.584698267938,-780.3650762690568,-3431.7200117992797,-113.1657438351586,-13.10089839737802,-3.341611413428357,76.99999999999999,7772.584698267938,-780.3650762690568,-3431.7200117992797,-113.1657438351586,-13.10089839737802,-3.341611413428357,76.99999999999999,-649.6182651411582,5340.729953987794,5930.889358516375,51.01260620385463,38.62167680678717,20.195235502771677,1624.0137719751815,-649.6182651411582,5340.729953987794,5930.889358516375,51.01260620385463,38.62167680678717,20.195235502771677,1624.0137719751815
152,09:30:34.304,13.6653,16.0933,8.9382,9.1768,13.7656,15.3942,13.8304,17.6832,-20.6948,28.9465,8.6615,10.8567,8.9438,18.4754,9.38,22.4696,23.36,11.1673,6.7205,14.3775,-77.0689,10.3586,9.7284,9.9709,13.981,3019.0,1949.0,-19.5,-3841.0,3051.0,7774.802348985583,-787.6667208866602,-3438.9457767271424,-113.116151713561,-13.232614420755151,-3.8561349126376014,77.0,7774.802348985583,-787.6667208866602,-3438.9457767271424,-113.116151713561,-13.232614420755151,-3.8561349126376014,77.0,-636.6098123700291,5343.051026054802,5922.597073956055,49.953828675813625,38.27862123206277,19.405165219428916,1624.028402812732,-636.6098123700291,5343.051026054802,5922.597073956055,49.953828675813625,38.27862123206277,19.405165219428916,1624.028402812732
153,09:30:34.306,13.541,15.7328,6.971,7.352,12.6453,13.8073,12.9434,14.923,-22.117,27.5458,8.2786,8.9681,9.3458,15.984,8.5295,20.0573,21.5833,10.1029,4.187,13.6744,-79.1477,10.3077,7.3852,8.4935,7.8836,3044.5,1994.0,-21.5,-3955.0,3048.5,7776.327650569259,-794.0858273697318,-3448.211535755362,-112.88368767438422,-13.313881245443214,-4.399852705132378,77.00000000000001,7776.327650569259,-794.0858273697318,-3448.211535755362,-112.88368767438422,-13.313881245443214,-4.399852705132378,77.00000000000001,-624.4922270283273,5344.807121127913,5915.460110137552,48.888748045845816,38.02472725394493,18.617477184700668,1624.036147662691,-624.4922270283273,5344.807121127913,5915.460110137552,48.888748045845816,38.02472725394493,18.617477184700668,1624.036147662691
154,09:30:34.308,12.4291,14.3348,4.0521,4.7277,10.6006,11.3452,10.7215,10.9493,-24.4129,25.0661,6.9305,5.947,9.3496,14.6336,7.0582,16.645,18.7333,8.201,0.6771,11.7015,-82.4541,9.3277,3.9936,5.848,1.1204,3069.5,2194.0,-23.5,-4033.0,3050.5,7776.835301435289,-797.803289235204,-3457.051529855724,-112.5008157568048,-13.263432046754168,-4.829046998418304,76.99999999999999,7776.835301435289,-797.803289235204,-3457.051529855724,-112.5008157568048,-13.263432046754168,-4.829046998418304,76.99999999999999,-615.7830944577458,5345.842144134016,5909.815430879362,47.88244494391817,37.91388885055133,17.81985943331455,1624.0292616751003,-615.7830944577458,5345.842144134016,5909.815430879362,47.88244494391817,37.91388885055133,17.81985943331455,1624.0292616751003
155,09:30:34.310,9.8191,11.5168,0.2326,1.1196,7.5957,7.828,7.2481,6.1539,-28.2286,21.3555,4.227,1.6686,8.6299,14.2438,4.7142,12.2644,14.9772,5.2955,-3.9334,8.2302,-86.996,7.1192,-0.7233,2.331,-5.4946,3081.0,2261.0,-25.0,-4158.0,3052.0,7776.0,-797.0,-3462.999999999999,-112.0,-13.0,-5.0,76.99999999999999,7776.0,-797.0,-3462.999999999999,-112.0,-13.0,-5.0,76.99999999999999,-613.0,5346.000000000002,5906.000000000001,47.0,37.99999999999999,16.999999999999996,1624.0000000000002,-613.0,5346.000000000002,5906.000000000001,47.0,37.99999999999999,16.999999999999996,1624.0000000000002
156,09:30:34.312,6.2631,7.6947,-3.9028,-3.0045,4.1378,3.7718,3.0869,1.0375,-33.5819,16.2997,0.7705,-3.1578,7.0119,13.3974,1.9586,7.5254,10.8619,1.8668,-8.9392,3.7896,-92.2199,3.9811,-5.8315,-1.4996,-11.3268,3070.5,2221.5,-26.0,-4230.5,3050.5,7773.662095456712,-790.5568246977941,-3464.278643756834,-111.42280040315586,-12.477168215042978,-4.817385734222502,76.99999999999999,7773.662095456712,-790.5568246977941,-3464.278643756834,-111.42280040315586,-12.477168215042978,-4.817385734222502,76.99999999999999,-617.795804305885,5345.195246095403,5904.325538878501,46.29270608646304,38.31878597421694,16.15249764892466,1623.946641894926,-617.795804305885,5345.195246095403,5904.325538878501,46.29270608646304,38.31878597421694,16.15249764892466,1623.946641894926
157,09:30:34.314,3.1777,4.1155,-7.2394,-6.5033,1.2363,0.4056,-0.6754,-3.4131,-39.2189,10.6473,-2.1451,-7.2039,4.9403,11.3294,-0.1352,3.4901,7.3203,-0.9667,-12.8953,-0.3258,-96.9318,0.8982,-9.6819,-4.8089,-15.6347,3045.0,2244.0,-26.5,-4231.5,3046.5,7770.324540106748,-780.1545144292627,-3461.858985082306,-110.84716080549832,-11.78791953994846,-4.3794454927897615,77.0,7770.324540106748,-780.1545144292627,-3461.858985082306,-110.84716080549832,-11.78791953994846,-4.3794454927897615,77.0,-628.3644692625709,5343.625049560339,5905.002799136043,45.75670504529892,38.83329722035987,15.299594062017915,1623.891563047386,-628.3644692625709,5343.625049560339,5905.002799136043,45.75670504529892,38.83329722035987,15.299594062017915,1623.891563047386
158,09:30:34.316,1.9154,2.1541,-8.6453,-8.1786,-0.0725,-1.0195,-2.8775,-5.9474,-43.1893,5.9079,-3.3671,-9.2246,3.3438,8.7942,-0.5747,1.1498,5.2912,-2.0717,-14.4358,-2.7062,-99.803,-0.8813,-10.9969,-6.6884,-17.5807,3006.0,2284.5,-26.5,-4328.0,3037.0,7766.655937028429,-768.1737918118407,-3457.400004529364,-110.36012100626311,-11.060086757332828,-3.832812384246061,77.00000000000001,7766.655937028429,-768.1737918118407,-3457.400004529364,-110.36012100626311,-11.060086757332828,-3.832812384246061,77.00000000000001,-642.0352320663071,5341.557229977577,5908.217289954333,45.37435096090344,39.48841547939401,14.470441650649231,1623.863163252384,-642.0352320663071,5341.557229977577,5908.217289954333,45.37435096090344,39.48841547939401,14.470441650649231,1623.863163252384
159,09:30:34.318,2.9425,2.4744,-7.6228,-7.4979,0.7204,-0.0207,-2.9081,-5.8121,-44.17,3.3844,-2.5039,-8.6955,2.9521,7.1405,0.9159,0.9157,5.249,-1.0121,-13.1134,-2.6381,-100.0818,-0.5496,-9.5449,-6.5245,-16.669,2968.0,2099.5,-27.0,-4557.5,3023.0,7763.32488930007,-756.9953794629405,-3452.5606826509456,-110.0487208046851,-10.421502649811158,-3.324119517134684,76.99999999999999,7763.32488930007,-756.9953794629405,-3452.5606826509456,-110.0487208046851,-10.421502649811158,-3.324119517134684,76.99999999999999,-656.1373299133684,5339.259606929874,5914.154520515084,45.12799791767182,40.229022492285765,13.694192826186644,1623.8898423049206,-656.1373299133684,5339.259606929874,5914.154520515084,45.12799791767182,40.229022492285765,13.694192826186644,1623.8898423049206
160,09:30:34.320,5.7927,4.8017,-4.521,-4.7876,3.4112,2.9627,-0.9427,-3.2606,-42.2828,3.3866,0.1078,-5.9306,3.7595,6.9224,3.8904,2.5128,7.046,1.8022,-9.5171,-0.3998,-97.8978,1.8313,-5.9287,-4.2516,-13.1388,2944.5,1309.5,-27.5,-4871.0,3010.5,7761.0,-749.0000000000001,-3448.9999999999995,-110.00000000000004,-9.999999999999998,-3.0,76.99999999999999,7761.0,-749.0000000000001,-3448.9999999999995,-110.00000000000004,-9.999999999999998,-3.0,76.99999999999999,-668.0,5337.000000000001,5923.0,45.0,41.00000000000001,13.000000000000002,1623.9999999999998,-668.0,5337.000000000001,5923.0,45.0,41.00000000000001,13.000000000000002,1623.9999999999998
161,09:30:34.322,9.6482,8.3927,-0.1634,-0.8335,7.3408,7.0968,2.3616,0.7262,-38.756,5.3823,3.8475,-1.7254,5.1654,7.6784,7.6721,5.2624,10.1213,5.5839,-4.6907,3.1069,-93.9852,5.5256,-0.9428,-0.3115,-7.8833,2940.5,649.0,-28.5,-5170.5,2996.0,7760.190919905211,-745.9756249397601,-3447.9734131733844,-110.26305455221754,-9.886428742449535,-2.9648456496814486,76.99999999999999,7760.190919905211,-745.9756249397601,-3447.9734131733844,-110.26305455221754,-9.886428742449535,-2.9648456496814486,76.99999999999999,-675.5665176353073,5334.961061630597,5934.560485969623,44.97656945029242,41.75917929634556,12.410773901528591,1624.2076604451147,-675.5665176353073,5334.961061630597,5934.560485969623,44.97656945029242,41.75917929634556,12.410773901528591,1624.2076604451147
162,09:30:34.324,13.845,12.5891,4.6644,3.5977,11.7646,11.7048,6.3148,5.1565,-34.9718,8.7437,8.1211,3.0563,6.5701,8.8721,11.7249,8.4188,13.7768,9.6811,0.4544,6.9314,-89.228,9.7079,4.7411,4.568,-2.0283,2957.0,323.0,-29.0,-5420.5,2988.5,7760.771490587423,-747.339221396272,-3449.122282943631,-110.7352050644449,-10.023707419449831,-3.1540831162027825,77.0,7760.771490587423,-747.339221396272,-3449.122282943631,-110.7352050644449,-10.023707419449831,-3.1540831162027825,77.0,-679.2363105797051,5332.98477570384,5947.127729499782,45.05935114298947,42.51618988649907,11.924458532497308,1624.4693449977235,-679.2363105797051,5332.98477570384,5947.127729499782,45.05935114298947,42.51618988649907,11.924458532497308,1624.4693449977235
163,09:30:34.326,17.9052,16.9199,9.3896,7.8925,16.0355,16.3226,10.3642,9.4347,-31.8294,13.2059,12.352,7.6649,7.7768,10.5907,15.598,11.338,17.3137,13.6634,5.2417,10.3776,-84.4437,13.8723,10.4078,9.5697,3.4007,2983.5,114.5,-29.0,-5596.0,2985.0,7762.456601317027,-751.9150053829015,-3451.684446127183,-111.2758283005632,-10.317771725225198,-3.4608977578832203,77.00000000000001,7762.456601317027,-751.9150053829015,-3451.684446127183,-111.2758283005632,-10.317771725225198,-3.4608977578832203,77.00000000000001,-680.0228447064493,5330.827958961785,5958.614730045122,45.25384811054022,43.29361082847945,11.5327562127019,1624.7271993277743,-680.0228447064493,5330.827958961785,5958.614730045122,45.25384811054022,43.29361082847945,11.5327562127019,1624.7271993277743
164,09:30:34.328,21.3903,20.9129,13.5445,11.5272,19.6587,20.4776,14.0404,13.2534,-29.6985,18.6949,15.9684,11.5273,8.8996,13.1273,18.7966,13.5817,20.1586,17.1535,9.0869,13.0521,-80.3496,17.8001,15.1988,13.9376,7.6096,3008.5,-124.0,-29.5,-5607.0,2988.5,7764.961141364422,-758.5271929130231,-3454.897739540492,-111.74430102445451,-10.674557354000516,-3.7784749330425673,76.99999999999999,7764.961141364422,-758.5271929130231,-3454.897739540492,-111.74430102445451,-10.674557354000516,-3.7784749330425673,76.99999999999999,-678.9395858887958,5328.247428146486,5966.934487060313,45.565563385394114,44.11402118030696,11.227369261937495,1624.9233691052168,-678.9395858887958,5328.247428146486,5966.934487060313,45.565563385394114,44.11402118030696,11.227369261937495,1624.9233691052168
